#BITPIX  =                    8  /  8-bit ASCII characters                       
#NAXIS   =                    1  /  Number of Image Dimensions                   
#NAXIS1  =                 1181  /  Length of axis                               
#ORIGIN  = 'NOAO-IRAF: WTEXTIMAGE'  /
#IRAF-MAX=                   0.  /  Max image pixel (out of date)                
#IRAF-MIN=                   0.  /  Min image pixel (out of date)                
#IRAF-B/P=                   32  /  Image bits per pixel                         
#IRAFTYPE= 'REAL FLOATING     '  /  Image datatype                              
#OBJECT  = 'SENSITIVITY FUNCTION FOR APERTURE 1'  /
#FILENAME= 'QE1_REF100.FITS   '  /  IRAF filename                               
#FORMAT  = '5G14.7            '  /  Text line format                            
#EXTEND  =                    F / File may contain extensions                    
#ORIGIN  = 'NOAO-IRAF FITS Image Kernel July 2003' / FITS file originator        
#DATE    = '2005-02-02T23:54:08' / Date FITS file was generated                  
#IRAF-TLM= '16:54:08 (02/02/2005)' / Time of last modification                   
#OBJECT  = 'Sensitivity function for aperture 1' / Name of the object observed   
#APNUM1  = '1 1     '                                                            
#DC-FLAG =                    0                                                  
#WCSDIM  =                    1                                                  
#CTYPE1  = 'LINEAR  '                                                            
#CRVAL1  =     3880.69702148438                                                  
#CRPIX1  =                   1.                                                  
#CDELT1  =     1.59381186962128                                                  
#CD1_1   =     1.59381186962128                                                  
#LTM1_1  =                   1.                                                  
#WAT0_001= 'system=equispec'                                                     
#WAT1_001= 'wtype=linear label=Wavelength units=Angstroms'                       
#END                                                                             
#                                                                                
#                                                                                
#                                                                                
#                                                                                
#                                                                                
#        3200.00      0.016881082
      3201.00      0.017029045
      3202.00      0.017174452
      3203.00      0.017315213
      3204.00      0.017461448
      3205.00      0.017609143
      3206.00      0.017752078
      3207.00      0.017892219
      3208.00      0.018033759
      3209.00      0.018178939
      3210.00      0.018319138
      3211.00      0.018460865
      3212.00      0.018595382
      3213.00      0.018733569
      3214.00      0.018875529
      3215.00      0.019012406
      3216.00      0.019146397
      3217.00      0.019281945
      3218.00      0.019421446
      3219.00      0.019558039
      3220.00      0.019689370
      3221.00      0.019820010
      3222.00      0.019954739
      3223.00      0.020088848
      3224.00      0.020219999
      3225.00      0.020348068
      3226.00      0.020477922
      3227.00      0.020607153
      3228.00      0.020740711
      3229.00      0.020871261
      3230.00      0.020996202
      3231.00      0.021120485
      3232.00      0.021251814
      3233.00      0.021377465
      3234.00      0.021499951
      3235.00      0.021624409
      3236.00      0.021748279
      3237.00      0.021876812
      3238.00      0.021999572
      3239.00      0.022119086
      3240.00      0.022240688
      3241.00      0.022364391
      3242.00      0.022487574
      3243.00      0.022602064
      3244.00      0.022721449
      3245.00      0.022842999
      3246.00      0.022964026
      3247.00      0.023081781
      3248.00      0.023196176
      3249.00      0.023310020
      3250.00      0.023431817
      3251.00      0.023547418
      3252.00      0.023659673
      3253.00      0.023774220
      3254.00      0.023888244
      3255.00      0.024007613
      3256.00      0.024120666
      3257.00      0.024227346
      3258.00      0.024339361
      3259.00      0.024456843
      3260.00      0.024567878
      3261.00      0.024675464
      3262.00      0.024782534
      3263.00      0.024895156
      3264.00      0.025007325
      3265.00      0.025119038
      3266.00      0.025221082
      3267.00      0.025328812
      3268.00      0.025439169
      3269.00      0.025545975
      3270.00      0.025652330
      3271.00      0.025755079
      3272.00      0.025860555
      3273.00      0.025965545
      3274.00      0.026073318
      3275.00      0.026174275
      3276.00      0.026277981
      3277.00      0.026381272
      3278.00      0.026484109
      3279.00      0.026589843
      3280.00      0.026685324
      3281.00      0.026786897
      3282.00      0.026894768
      3283.00      0.026992243
      3284.00      0.027085966
      3285.00      0.027189331
      3286.00      0.027295725
      3287.00      0.027391583
      3288.00      0.027490441
      3289.00      0.027585497
      3290.00      0.027680185
      3291.00      0.027784803
      3292.00      0.027882170
      3293.00      0.027972248
      3294.00      0.028068902
      3295.00      0.028172181
      3296.00      0.028264620
      3297.00      0.028360214
      3298.00      0.028448379
      3299.00      0.028543297
      3300.00      0.028641440
      3301.00      0.028739268
      3302.00      0.028825976
      3303.00      0.028919587
      3304.00      0.029016478
      3305.00      0.029109450
      3306.00      0.029202108
      3307.00      0.029287125
      3308.00      0.029379140
      3309.00      0.029474582
      3310.00      0.029566030
      3311.00      0.029649762
      3312.00      0.029740601
      3313.00      0.029831169
      3314.00      0.029925230
      3315.00      0.030015268
      3316.00      0.030097491
      3317.00      0.030186955
      3318.00      0.030283827
      3319.00      0.030368978
      3320.00      0.030453874
      3321.00      0.030538463
      3322.00      0.030626667
      3323.00      0.030718558
      3324.00      0.030802402
      3325.00      0.030889897
      3326.00      0.030973271
      3327.00      0.031064262
      3328.00      0.031151088
      3329.00      0.031229786
      3330.00      0.031316193
      3331.00      0.031402358
      3332.00      0.031492337
      3333.00      0.031578158
      3334.00      0.031655724
      3335.00      0.031737041
      3336.00      0.031826326
      3337.00      0.031911327
      3338.00      0.031992126
      3339.00      0.032076797
      3340.00      0.032157196
      3341.00      0.032245617
      3342.00      0.032329800
      3343.00      0.032405532
      3344.00      0.032485208
      3345.00      0.032577263
      3346.00      0.032660834
      3347.00      0.032731679
      3348.00      0.032819137
      3349.00      0.032898082
      3350.00      0.032985328
      3351.00      0.033063964
      3352.00      0.033142494
      3353.00      0.033220835
      3354.00      0.033307691
      3355.00      0.033390104
      3356.00      0.033472468
      3357.00      0.033546053
      3358.00      0.033628185
      3359.00      0.033710199
      3360.00      0.033792163
      3361.00      0.033869699
      3362.00      0.033947088
      3363.00      0.034033221
      3364.00      0.034110452
      3365.00      0.034196483
      3366.00      0.034264703
      3367.00      0.034346142
      3368.00      0.034432051
      3369.00      0.034513449
      3370.00      0.034581305
      3371.00      0.034662577
      3372.00      0.034748324
      3373.00      0.034829554
      3374.00      0.034906227
      3375.00      0.034982868
      3376.00      0.035054861
      3377.00      0.035145194
      3378.00      0.035226328
      3379.00      0.035293647
      3380.00      0.035374767
      3381.00      0.035460525
      3382.00      0.035537034
      3383.00      0.035618210
      3384.00      0.035690059
      3385.00      0.035771243
      3386.00      0.035852459
      3387.00      0.035929027
      3388.00      0.036005560
      3389.00      0.036086891
      3390.00      0.036168293
      3391.00      0.036249731
      3392.00      0.036326451
      3393.00      0.036398382
      3394.00      0.036479990
      3395.00      0.036566469
      3396.00      0.036643408
      3397.00      0.036715499
      3398.00      0.036797380
      3399.00      0.036879377
      3400.00      0.036961448
      3401.00      0.037038726
      3402.00      0.037111170
      3403.00      0.037193500
      3404.00      0.037280935
      3405.00      0.037358587
      3406.00      0.037436330
      3407.00      0.037509166
      3408.00      0.037592107
      3409.00      0.037680184
      3410.00      0.037758382
      3411.00      0.037831661
      3412.00      0.037910103
      3413.00      0.038003877
      3414.00      0.038082609
      3415.00      0.038156378
      3416.00      0.038235393
      3417.00      0.038314539
      3418.00      0.038404092
      3419.00      0.038488677
      3420.00      0.038557918
      3421.00      0.038642773
      3422.00      0.038733023
      3423.00      0.038813038
      3424.00      0.038887960
      3425.00      0.038968221
      3426.00      0.039048652
      3427.00      0.039139706
      3428.00      0.039220425
      3429.00      0.039301279
      3430.00      0.039382221
      3431.00      0.039468615
      3432.00      0.039555093
      3433.00      0.039631343
      3434.00      0.039718346
      3435.00      0.039800059
      3436.00      0.039887214
      3437.00      0.039969040
      3438.00      0.040051318
      3439.00      0.040127816
      3440.00      0.040226546
      3441.00      0.040309410
      3442.00      0.040386447
      3443.00      0.040469404
      3444.00      0.040557529
      3445.00      0.040646139
      3446.00      0.040735224
      3447.00      0.040807337
      3448.00      0.040890981
      3449.00      0.040985449
      3450.00      0.041069232
      3451.00      0.041153464
      3452.00      0.041231731
      3453.00      0.041321707
      3454.00      0.041417033
      3455.00      0.041495848
      3456.00      0.041574690
      3457.00      0.041659659
      3458.00      0.041755729
      3459.00      0.041840845
      3460.00      0.041931765
      3461.00      0.042005483
      3462.00      0.042090754
      3463.00      0.042188070
      3464.00      0.042273889
      3465.00      0.042353938
      3466.00      0.042439853
      3467.00      0.042531687
      3468.00      0.042623607
      3469.00      0.042710127
      3470.00      0.042790805
      3471.00      0.042877427
      3472.00      0.042975985
      3473.00      0.043056808
      3474.00      0.043144030
      3475.00      0.043231304
      3476.00      0.043324241
      3477.00      0.043418063
      3478.00      0.043499525
      3479.00      0.043587060
      3480.00      0.043675055
      3481.00      0.043769186
      3482.00      0.043857321
      3483.00      0.043939409
      3484.00      0.044027649
      3485.00      0.044128626
      3486.00      0.044217021
      3487.00      0.044305880
      3488.00      0.044382428
      3489.00      0.044477577
      3490.00      0.044573229
      3491.00      0.044662332
      3492.00      0.044745658
      3493.00      0.044835273
      3494.00      0.044924955
      3495.00      0.045027298
      3496.00      0.045117141
      3497.00      0.045201113
      3498.00      0.045291063
      3499.00      0.045387851
      3500.00      0.045484733
      3501.00      0.045562515
      3502.00      0.045653529
      3503.00      0.045744207
      3504.00      0.045841798
      3505.00      0.045933023
      3506.00      0.046017835
      3507.00      0.046109173
      3508.00      0.046213603
      3509.00      0.046298985
      3510.00      0.046383992
      3511.00      0.046482559
      3512.00      0.046568070
      3513.00      0.046673406
      3514.00      0.046765647
      3515.00      0.046844691
      3516.00      0.046944083
      3517.00      0.047043582
      3518.00      0.047129813
      3519.00      0.047215674
      3520.00      0.047309093
      3521.00      0.047408908
      3522.00      0.047508825
      3523.00      0.047602487
      3524.00      0.047689431
      3525.00      0.047782801
      3526.00      0.047876655
      3527.00      0.047970977
      3528.00      0.048058112
      3529.00      0.048152148
      3530.00      0.048253554
      3531.00      0.048355058
      3532.00      0.048442420
      3533.00      0.048530224
      3534.00      0.048632379
      3535.00      0.048727264
      3536.00      0.048822216
      3537.00      0.048924660
      3538.00      0.049005723
      3539.00      0.049101275
      3540.00      0.049203966
      3541.00      0.049299682
      3542.00      0.049381685
      3543.00      0.049484625
      3544.00      0.049587679
      3545.00      0.049676939
      3546.00      0.049780576
      3547.00      0.049862765
      3548.00      0.049959358
      3549.00      0.050070478
      3550.00      0.050160012
      3551.00      0.050249594
      3552.00      0.050346890
      3553.00      0.050451561
      3554.00      0.050548613
      3555.00      0.050638820
      3556.00      0.050736420
      3557.00      0.050834088
      3558.00      0.050932245
      3559.00      0.051030063
      3560.00      0.051120947
      3561.00      0.051211464
      3562.00      0.051324802
      3563.00      0.051423334
      3564.00      0.051514442
      3565.00      0.051605596
      3566.00      0.051704323
      3567.00      0.051810670
      3568.00      0.051909977
      3569.00      0.052001363
      3570.00      0.052100805
      3571.00      0.052207949
      3572.00      0.052299923
      3573.00      0.052399594
      3574.00      0.052483987
      3575.00      0.052591481
      3576.00      0.052691368
      3577.00      0.052799487
      3578.00      0.052884041
      3579.00      0.052976788
      3580.00      0.053085159
      3581.00      0.053193647
      3582.00      0.053286591
      3583.00      0.053379578
      3584.00      0.053480471
      3585.00      0.053589338
      3586.00      0.053690824
      3587.00      0.053776131
      3588.00      0.053877740
      3589.00      0.053979019
      3590.00      0.054088777
      3591.00      0.054182646
      3592.00      0.054276556
      3593.00      0.054378556
      3594.00      0.054488694
      3595.00      0.054583210
      3596.00      0.054677355
      3597.00      0.054779656
      3598.00      0.054874321
      3599.00      0.054985347
      3600.00      0.055096078
      3601.00      0.055174558
      3602.00      0.055285868
      3603.00      0.055389065
      3604.00      0.055500605
      3605.00      0.055587849
      3606.00      0.055682986
      3607.00      0.055786475
      3608.00      0.055898807
      3609.00      0.056002490
      3610.00      0.056089919
      3611.00      0.056194149
      3612.00      0.056306464
      3613.00      0.056410879
      3614.00      0.056498474
      3615.00      0.056594554
      3616.00      0.056699165
      3617.00      0.056812795
      3618.00      0.056917604
      3619.00      0.057013948
      3620.00      0.057110750
      3621.00      0.057224371
      3622.00      0.057329919
      3623.00      0.057426921
      3624.00      0.057523558
      3625.00      0.057620657
      3626.00      0.057735200
      3627.00      0.057841147
      3628.00      0.057929713
      3629.00      0.058044550
      3630.00      0.058150748
      3631.00      0.058257031
      3632.00      0.058354582
      3633.00      0.058452604
      3634.00      0.058550255
      3635.00      0.058665715
      3636.00      0.058772813
      3637.00      0.058870680
      3638.00      0.058968588
      3639.00      0.059084881
      3640.00      0.059182928
      3641.00      0.059290443
      3642.00      0.059379588
      3643.00      0.059487248
      3644.00      0.059603642
      3645.00      0.059711503
      3646.00      0.059800825
      3647.00      0.059899696
      3648.00      0.060016503
      3649.00      0.060124684
      3650.00      0.060223355
      3651.00      0.060322077
      3652.00      0.060421266
      3653.00      0.060538597
      3654.00      0.060647201
      3655.00      0.060736895
      3656.00      0.060835909
      3657.00      0.060963415
      3658.00      0.061062589
      3659.00      0.061171204
      3660.00      0.061261114
      3661.00      0.061360866
      3662.00      0.061479140
      3663.00      0.061588091
      3664.00      0.061678167
      3665.00      0.061787256
      3666.00      0.061886916
      3667.00      0.062005313
      3668.00      0.062105116
      3669.00      0.062204978
      3670.00      0.062304470
      3671.00      0.062423709
      3672.00      0.062533010
      3673.00      0.062623470
      3674.00      0.062723215
      3675.00      0.062832740
      3676.00      0.062952100
      3677.00      0.063052075
      3678.00      0.063152100
      3679.00      0.063252177
      3680.00      0.063371971
      3681.00      0.063471782
      3682.00      0.063572070
      3683.00      0.063671988
      3684.00      0.063771952
      3685.00      0.063902217
      3686.00      0.064002364
      3687.00      0.064092579
      3688.00      0.064192392
      3689.00      0.064322757
      3690.00      0.064422739
      3691.00      0.064513134
      3692.00      0.064613204
      3693.00      0.064723447
      3694.00      0.064833790
      3695.00      0.064944224
      3696.00      0.065033988
      3697.00      0.065134379
      3698.00      0.065265069
      3699.00      0.065365219
      3700.00      0.065455159
      3701.00      0.065555394
      3702.00      0.065665995
      3703.00      0.065786606
      3704.00      0.065887076
      3705.00      0.065976811
      3706.00      0.066076948
      3707.00      0.066197555
      3708.00      0.066297851
      3709.00      0.066408243
      3710.00      0.066497766
      3711.00      0.066608312
      3712.00      0.066718962
      3713.00      0.066829719
      3714.00      0.066919000
      3715.00      0.067029475
      3716.00      0.067140073
      3717.00      0.067240118
      3718.00      0.067339794
      3719.00      0.067439964
      3720.00      0.067550462
      3721.00      0.067660641
      3722.00      0.067760600
      3723.00      0.067849417
      3724.00      0.067959828
      3725.00      0.068070357
      3726.00      0.068180973
      3727.00      0.068280415
      3728.00      0.068369030
      3729.00      0.068479465
      3730.00      0.068600946
      3731.00      0.068700224
      3732.00      0.068777627
      3733.00      0.068887981
      3734.00      0.068998023
      3735.00      0.069108159
      3736.00      0.069218402
      3737.00      0.069306580
      3738.00      0.069405870
      3739.00      0.069527067
      3740.00      0.069625667
      3741.00      0.069713578
      3742.00      0.069823474
      3743.00      0.069933478
      3744.00      0.070043590
      3745.00      0.070130839
      3746.00      0.070229392
      3747.00      0.070328007
      3748.00      0.070448922
      3749.00      0.070547265
      3750.00      0.070634303
      3751.00      0.070732746
      3752.00      0.070842248
      3753.00      0.070951426
      3754.00      0.071049666
      3755.00      0.071147541
      3756.00      0.071245473
      3757.00      0.071354574
      3758.00      0.071463777
      3759.00      0.071549929
      3760.00      0.071647268
      3761.00      0.071744663
      3762.00      0.071853764
      3763.00      0.071962556
      3764.00      0.072048053
      3765.00      0.072145283
      3766.00      0.072265623
      3767.00      0.072362596
      3768.00      0.072447844
      3769.00      0.072544475
      3770.00      0.072652569
      3771.00      0.072761204
      3772.00      0.072869513
      3773.00      0.072941814
      3774.00      0.073049821
      3775.00      0.073157959
      3776.00      0.073253788
      3777.00      0.073337708
      3778.00      0.073445654
      3779.00      0.073541242
      3780.00      0.073648949
      3781.00      0.073756324
      3782.00      0.073839616
      3783.00      0.073934602
      3784.00      0.074041801
      3785.00      0.074149111
      3786.00      0.074219522
      3787.00      0.074326542
      3788.00      0.074420994
      3789.00      0.074527768
      3790.00      0.074621941
      3791.00      0.074703869
      3792.00      0.074810467
      3793.00      0.074916732
      3794.00      0.075010303
      3795.00      0.075104366
      3796.00      0.075185224
      3797.00      0.075278962
      3798.00      0.075396801
      3799.00      0.075490268
      3800.00      0.075570436
      3801.00      0.075676092
      3802.00      0.075780999
      3803.00      0.075873860
      3804.00      0.075966362
      3805.00      0.076045872
      3806.00      0.076138044
      3807.00      0.076242493
      3808.00      0.076347049
      3809.00      0.076426316
      3810.00      0.076517438
      3811.00      0.076621817
      3812.00      0.076713092
      3813.00      0.076803994
      3814.00      0.076882156
      3815.00      0.076972727
      3816.00      0.077089068
      3817.00      0.077179374
      3818.00      0.077256836
      3819.00      0.077346804
      3820.00      0.077449786
      3821.00      0.077552426
      3822.00      0.077641754
      3823.00      0.077705119
      3824.00      0.077807555
      3825.00      0.077909670
      3826.00      0.077998364
      3827.00      0.078074029
      3828.00      0.078162394
      3829.00      0.078277110
      3830.00      0.078352036
      3831.00      0.078453362
      3832.00      0.078527935
      3833.00      0.078615318
      3834.00      0.078716015
      3835.00      0.078803114
      3836.00      0.078876974
      3837.00      0.078963728
      3838.00      0.079050548
      3839.00      0.079150355
      3840.00      0.079250261
      3841.00      0.079323033
      3842.00      0.079408802
      3843.00      0.079508091
      3844.00      0.079594014
      3845.00      0.079666056
      3846.00      0.079751204
      3847.00      0.079822883
      3848.00      0.079934798
      3849.00      0.080019707
      3850.00      0.080090641
      3851.00      0.080175217
      3852.00      0.080273060
      3853.00      0.080357345
      3854.00      0.080441251
      3855.00      0.080525217
      3856.00      0.080595074
      3857.00      0.080692450
      3858.00      0.080789496
      3859.00      0.080845265
      3860.00      0.080942007
      3861.00      0.081038869
      3862.00      0.081121526
      3863.00      0.081176493
      3864.00      0.081258801
      3865.00      0.081354637
      3866.00      0.081451024
      3867.00      0.081532667
      3868.00      0.081600394
      3869.00      0.081682150
      3870.00      0.081777549
      3871.00      0.081858997
      3872.00      0.081926005
      3873.00      0.082007125
      3874.00      0.082087858
      3875.00      0.082182788
      3876.00      0.082263668
      3877.00      0.082329554
      3878.00      0.082410092
      3879.00      0.082504478
      3880.00      0.082584282
      3881.00      0.082664145
      3882.00      0.082729790
      3883.00      0.082809310
      3884.00      0.082902784
      3885.00      0.082982459
      3886.00      0.083032575
      3887.00      0.083111886
      3888.00      0.083219180
      3889.00      0.083298218
      3890.00      0.083376867
      3891.00      0.083440665
      3892.00      0.083504484
      3893.00      0.083611418
      3894.00      0.083675346
      3895.00      0.083738404
      3896.00      0.083816500
      3897.00      0.083908360
      3898.00      0.083986161
      3899.00      0.084063571
      3900.00      0.084125952
      3901.00      0.084203025
      3902.00      0.084294869
      3903.00      0.084371640
      3904.00      0.084418991
      3905.00      0.084510157
      3906.00      0.084586658
      3907.00      0.084663210
      3908.00      0.084739387
      3909.00      0.084800340
      3910.00      0.084891483
      3911.00      0.084967402
      3912.00      0.085057837
      3913.00      0.085103602
      3914.00      0.085179236
      3915.00      0.085269458
      3916.00      0.085344796
      3917.00      0.085419749
      3918.00      0.085465147
      3919.00      0.085539742
      3920.00      0.085644531
      3921.00      0.085719287
      3922.00      0.085763882
      3923.00      0.085838270
      3924.00      0.085912726
      3925.00      0.086001968
      3926.00      0.086076128
      3927.00      0.086119918
      3928.00      0.086208939
      3929.00      0.086282812
      3930.00      0.086371584
      3931.00      0.086414546
      3932.00      0.086488140
      3933.00      0.086561348
      3934.00      0.086649980
      3935.00      0.086707960
      3936.00      0.086765509
      3937.00      0.086853912
      3938.00      0.086941984
      3939.00      0.086999219
      3940.00      0.087056502
      3941.00      0.087129285
      3942.00      0.087201689
      3943.00      0.087289255
      3944.00      0.087361809
      3945.00      0.087418385
      3946.00      0.087474992
      3947.00      0.087562419
      3948.00      0.087618657
      3949.00      0.087674934
      3950.00      0.087762123
      3951.00      0.087818023
      3952.00      0.087921133
      3953.00      0.087976672
      3954.00      0.088032250
      3955.00      0.088103638
      3956.00      0.088190452
      3957.00      0.088245700
      3958.00      0.088300980
      3959.00      0.088371693
      3960.00      0.088442474
      3961.00      0.088529230
      3962.00      0.088583770
      3963.00      0.088638342
      3964.00      0.088708904
      3965.00      0.088795521
      3966.00      0.088865769
      3967.00      0.088936093
      3968.00      0.088973928
      3969.00      0.089044324
      3970.00      0.089113897
      3971.00      0.089200090
      3972.00      0.089237538
      3973.00      0.089307731
      3974.00      0.089393243
      3975.00      0.089446943
      3976.00      0.089532620
      3977.00      0.089569724
      3978.00      0.089639311
      3979.00      0.089724765
      3980.00      0.089794045
      3981.00      0.089830762
      3982.00      0.089899670
      3983.00      0.089984994
      3984.00      0.090037678
      3985.00      0.090123176
      3986.00      0.090159083
      3987.00      0.090228293
      3988.00      0.090313118
      3989.00      0.090365544
      3990.00      0.090417549
      3991.00      0.090486081
      3992.00      0.090554691
      3993.00      0.090639914
      3994.00      0.090691629
      3995.00      0.090726795
      3996.00      0.090795157
      3997.00      0.090879761
      3998.00      0.090931615
      3999.00      0.090983057
      4000.00      0.091051202
      4001.00      0.091135660
      4002.00      0.091203505
      4003.00      0.091255119
      4004.00      0.091305841
      4005.00      0.091373831
      4006.00      0.091441428
      4007.00      0.091509097
      4008.00      0.091576828
      4009.00      0.091627747
      4010.00      0.091678246
      4011.00      0.091779960
      4012.00      0.091830556
      4013.00      0.091881194
      4014.00      0.091931395
      4015.00      0.092015591
      4016.00      0.092082880
      4017.00      0.092133221
      4018.00      0.092183579
      4019.00      0.092251030
      4020.00      0.092318089
      4021.00      0.092385211
      4022.00      0.092435280
      4023.00      0.092502515
      4024.00      0.092569358
      4025.00      0.092636256
      4026.00      0.092668827
      4027.00      0.092753055
      4028.00      0.092802886
      4029.00      0.092869563
      4030.00      0.092936760
      4031.00      0.092986260
      4032.00      0.093053107
      4033.00      0.093119559
      4034.00      0.093186542
      4035.00      0.093218357
      4036.00      0.093285440
      4037.00      0.093352114
      4038.00      0.093418394
      4039.00      0.093502682
      4040.00      0.093534612
      4041.00      0.093601062
      4042.00      0.093685132
      4043.00      0.093734199
      4044.00      0.093765733
      4045.00      0.093831964
      4046.00      0.093898719
      4047.00      0.093965080
      4048.00      0.094031506
      4049.00      0.094080331
      4050.00      0.094128723
      4051.00      0.094213020
      4052.00      0.094261506
      4053.00      0.094327779
      4054.00      0.094358568
      4055.00      0.094424917
      4056.00      0.094508692
      4057.00      0.094575195
      4058.00      0.094605622
      4059.00      0.094671751
      4060.00      0.094737971
      4061.00      0.094803770
      4062.00      0.094852188
      4063.00      0.094900163
      4064.00      0.094948183
      4065.00      0.095050179
      4066.00      0.095097814
      4067.00      0.095145972
      4068.00      0.095193689
      4069.00      0.095277570
      4070.00      0.095343451
      4071.00      0.095391306
      4072.00      0.095438718
      4073.00      0.095504778
      4074.00      0.095570443
      4075.00      0.095617978
      4076.00      0.095646883
      4077.00      0.095730906
      4078.00      0.095796328
      4079.00      0.095862289
      4080.00      0.095909566
      4081.00      0.095956399
      4082.00      0.096003723
      4083.00      0.096087317
      4084.00      0.096134274
      4085.00      0.096181268
      4086.00      0.096246680
      4087.00      0.096312184
      4088.00      0.096377275
      4089.00      0.096442905
      4090.00      0.096471157
      4091.00      0.096517441
      4092.00      0.096601271
      4093.00      0.096647651
      4094.00      0.096694541
      4095.00      0.096740970
      4096.00      0.096824646
      4097.00      0.096889340
      4098.00      0.096935910
      4099.00      0.096963406
      4100.00      0.097028233
      4101.00      0.097111857
      4102.00      0.097176377
      4103.00      0.097203958
      4104.00      0.097249810
      4105.00      0.097314482
      4106.00      0.097398036
      4107.00      0.097444040
      4108.00      0.097470761
      4109.00      0.097535193
      4110.00      0.097599702
      4111.00      0.097664280
      4112.00      0.097691087
      4113.00      0.097755279
      4114.00      0.097800584
      4115.00      0.097883896
      4116.00      0.097929300
      4117.00      0.097955721
      4118.00      0.098038781
      4119.00      0.098102889
      4120.00      0.098147983
      4121.00      0.098193106
      4122.00      0.098257390
      4123.00      0.098302112
      4124.00      0.098366043
      4125.00      0.098410848
      4126.00      0.098474894
      4127.00      0.098519314
      4128.00      0.098602725
      4129.00      0.098647227
      4130.00      0.098672502
      4131.00      0.098736354
      4132.00      0.098780485
      4133.00      0.098843993
      4134.00      0.098907570
      4135.00      0.098951830
      4136.00      0.098996128
      4137.00      0.099059397
      4138.00      0.099123205
      4139.00      0.099167155
      4140.00      0.099210657
      4141.00      0.099254666
      4142.00      0.099337275
      4143.00      0.099400445
      4144.00      0.099424576
      4145.00      0.099468266
      4146.00      0.099551187
      4147.00      0.099614137
      4148.00      0.099657504
      4149.00      0.099681240
      4150.00      0.099744337
      4151.00      0.099807016
      4152.00      0.099869773
      4153.00      0.099893119
      4154.00      0.099955978
      4155.00      0.099999134
      4156.00       0.10006162
      4157.00       0.10012419
      4158.00       0.10014716
      4159.00       0.10018998
      4160.00       0.10027210
      4161.00       0.10031501
      4162.00       0.10035749
      4163.00       0.10041991
      4164.00       0.10046199
      4165.00       0.10052454
      4166.00       0.10056670
      4167.00       0.10060889
      4168.00       0.10067114
      4169.00       0.10073298
      4170.00       0.10077482
      4171.00       0.10081717
      4172.00       0.10083849
      4173.00       0.10092066
      4174.00       0.10098232
      4175.00       0.10102435
      4176.00       0.10106593
      4177.00       0.10110708
      4178.00       0.10116896
      4179.00       0.10121018
      4180.00       0.10125144
      4181.00       0.10131301
      4182.00       0.10137465
      4183.00       0.10141555
      4184.00       0.10145649
      4185.00       0.10149746
      4186.00       0.10155884
      4187.00       0.10161982
      4188.00       0.10166093
      4189.00       0.10170159
      4190.00       0.10172182
      4191.00       0.10178250
      4192.00       0.10184376
      4193.00       0.10190459
      4194.00       0.10192442
      4195.00       0.10198488
      4196.00       0.10204590
      4197.00       0.10208590
      4198.00       0.10210533
      4199.00       0.10216601
      4200.00       0.10222627
      4201.00       0.10228711
      4202.00       0.10232682
      4203.00       0.10234538
      4204.00       0.10240587
      4205.00       0.10246596
      4206.00       0.10252659
      4207.00       0.10254476
      4208.00       0.10258420
      4209.00       0.10264451
      4210.00       0.10268355
      4211.00       0.10274350
      4212.00       0.10278264
      4213.00       0.10282131
      4214.00       0.10288095
      4215.00       0.10291971
      4216.00       0.10295851
      4217.00       0.10299733
      4218.00       0.10303571
      4219.00       0.10311616
      4220.00       0.10315464
      4221.00       0.10317209
      4222.00       0.10323120
      4223.00       0.10329039
      4224.00       0.10334966
      4225.00       0.10336670
      4226.00       0.10340443
      4227.00       0.10346335
      4228.00       0.10352235
      4229.00       0.10356020
      4230.00       0.10359809
      4231.00       0.10361428
      4232.00       0.10369426
      4233.00       0.10373178
      4234.00       0.10376885
      4235.00       0.10378462
      4236.00       0.10384307
      4237.00       0.10390159
      4238.00       0.10393880
      4239.00       0.10397556
      4240.00       0.10401234
      4241.00       0.10409205
      4242.00       0.10412894
      4243.00       0.10416539
      4244.00       0.10420185
      4245.00       0.10423837
      4246.00       0.10429594
      4247.00       0.10433253
      4248.00       0.10436866
      4249.00       0.10440482
      4250.00       0.10446215
      4251.00       0.10449839
      4252.00       0.10455583
      4253.00       0.10457000
      4254.00       0.10460587
      4255.00       0.10466298
      4256.00       0.10472015
      4257.00       0.10473392
      4258.00       0.10476944
      4259.00       0.10482628
      4260.00       0.10488319
      4261.00       0.10491835
      4262.00       0.10495355
      4263.00       0.10498829
      4264.00       0.10502356
      4265.00       0.10508026
      4266.00       0.10511462
      4267.00       0.10512759
      4268.00       0.10520589
      4269.00       0.10524038
      4270.00       0.10527489
      4271.00       0.10528695
      4272.00       0.10534303
      4273.00       0.10537716
      4274.00       0.10543338
      4275.00       0.10544552
      4276.00       0.10550133
      4277.00       0.10553512
      4278.00       0.10559107
      4279.00       0.10562444
      4280.00       0.10565784
      4281.00       0.10569130
      4282.00       0.10574697
      4283.00       0.10580272
      4284.00       0.10579132
      4285.00       0.10584665
      4286.00       0.10587978
      4287.00       0.10593475
      4288.00       0.10598979
      4289.00       0.10600023
      4290.00       0.10603302
      4291.00       0.10608821
      4292.00       0.10612059
      4293.00       0.10615299
      4294.00       0.10618544
      4295.00       0.10621742
      4296.00       0.10627191
      4297.00       0.10630398
      4298.00       0.10631359
      4299.00       0.10636820
      4300.00       0.10642242
      4301.00       0.10645414
      4302.00       0.10648589
      4303.00       0.10651719
      4304.00       0.10654899
      4305.00       0.10660299
      4306.00       0.10663391
      4307.00       0.10664269
      4308.00       0.10667365
      4309.00       0.10675005
      4310.00       0.10678111
      4311.00       0.10678898
      4312.00       0.10682009
      4313.00       0.10685073
      4314.00       0.10690370
      4315.00       0.10695725
      4316.00       0.10696472
      4317.00       0.10699502
      4318.00       0.10704822
      4319.00       0.10707812
      4320.00       0.10710803
      4321.00       0.10713798
      4322.00       0.10716797
      4323.00       0.10719800
      4324.00       0.10725052
      4325.00       0.10725714
      4326.00       0.10728627
      4327.00       0.10736196
      4328.00       0.10739119
      4329.00       0.10739739
      4330.00       0.10744975
      4331.00       0.10747856
      4332.00       0.10750743
      4333.00       0.10753632
      4334.00       0.10754211
      4335.00       0.10759371
      4336.00       0.10762221
      4337.00       0.10767392
      4338.00       0.10770250
      4339.00       0.10773061
      4340.00       0.10775875
      4341.00       0.10781020
      4342.00       0.10783841
      4343.00       0.10784287
      4344.00       0.10787064
      4345.00       0.10792180
      4346.00       0.10794964
      4347.00       0.10800041
      4348.00       0.10798107
      4349.00       0.10803191
      4350.00       0.10808283
      4351.00       0.10810986
      4352.00       0.10811348
      4353.00       0.10816403
      4354.00       0.10821417
      4355.00       0.10821783
      4356.00       0.10824454
      4357.00       0.10824773
      4358.00       0.10829753
      4359.00       0.10832383
      4360.00       0.10837375
      4361.00       0.10837652
      4362.00       0.10840291
      4363.00       0.10842884
      4364.00       0.10847847
      4365.00       0.10850396
      4366.00       0.10853000
      4367.00       0.10855557
      4368.00       0.10860491
      4369.00       0.10863055
      4370.00       0.10860822
      4371.00       0.10865717
      4372.00       0.10868239
      4373.00       0.10873149
      4374.00       0.10875629
      4375.00       0.10878113
      4376.00       0.10878214
      4377.00       0.10883091
      4378.00       0.10887924
      4379.00       0.10887982
      4380.00       0.10890432
      4381.00       0.10892834
      4382.00       0.10897687
      4383.00       0.10900098
      4384.00       0.10900063
      4385.00       0.10902478
      4386.00       0.10907249
      4387.00       0.10909621
      4388.00       0.10911999
      4389.00       0.10911920
      4390.00       0.10916661
      4391.00       0.10918996
      4392.00       0.10923748
      4393.00       0.10921212
      4394.00       0.10925922
      4395.00       0.10930638
      4396.00       0.10930521
      4397.00       0.10932774
      4398.00       0.10935031
      4399.00       0.10937292
      4400.00       0.10941982
      4401.00       0.10944200
      4402.00       0.10943992
      4403.00       0.10946213
      4404.00       0.10950821
      4405.00       0.10953051
      4406.00       0.10955234
      4407.00       0.10957370
      4408.00       0.10957121
      4409.00       0.10961701
      4410.00       0.10966288
      4411.00       0.10963550
      4412.00       0.10968093
      4413.00       0.10972645
      4414.00       0.10972304
      4415.00       0.10974364
      4416.00       0.10976478
      4417.00       0.10976090
      4418.00       0.10983067
      4419.00       0.10982632
      4420.00       0.10984657
      4421.00       0.10986684
      4422.00       0.10991177
      4423.00       0.10990748
      4424.00       0.10992734
      4425.00       0.10994723
      4426.00       0.10996664
      4427.00       0.11001130
      4428.00       0.11003078
      4429.00       0.11002558
      4430.00       0.11004461
      4431.00       0.11008894
      4432.00       0.11010804
      4433.00       0.11012717
      4434.00       0.11012103
      4435.00       0.11013971
      4436.00       0.11018324
      4437.00       0.11020199
      4438.00       0.11019591
      4439.00       0.11018933
      4440.00       0.11023252
      4441.00       0.11027527
      4442.00       0.11029366
      4443.00       0.11028663
      4444.00       0.11027962
      4445.00       0.11034699
      4446.00       0.11036500
      4447.00       0.11035752
      4448.00       0.11037456
      4449.00       0.11039213
      4450.00       0.11040923
      4451.00       0.11042634
      4452.00       0.11044350
      4453.00       0.11043509
      4454.00       0.11047688
      4455.00       0.11051873
      4456.00       0.11048524
      4457.00       0.11052665
      4458.00       0.11054296
      4459.00       0.11055930
      4460.00       0.11060087
      4461.00       0.11056636
      4462.00       0.11060748
      4463.00       0.11062344
      4464.00       0.11063941
      4465.00       0.11065491
      4466.00       0.11064516
      4467.00       0.11066069
      4468.00       0.11070159
      4469.00       0.11071668
      4470.00       0.11073182
      4471.00       0.11072162
      4472.00       0.11076166
      4473.00       0.11077688
      4474.00       0.11076622
      4475.00       0.11075558
      4476.00       0.11079524
      4477.00       0.11083550
      4478.00       0.11082438
      4479.00       0.11083874
      4480.00       0.11082714
      4481.00       0.11086703
      4482.00       0.11090648
      4483.00       0.11086940
      4484.00       0.11088336
      4485.00       0.11092241
      4486.00       0.11093595
      4487.00       0.11094951
      4488.00       0.11093751
      4489.00       0.11095110
      4490.00       0.11096424
      4491.00       0.11100303
      4492.00       0.11101622
      4493.00       0.11100376
      4494.00       0.11099081
      4495.00       0.11102924
      4496.00       0.11104201
      4497.00       0.11102910
      4498.00       0.11104192
      4499.00       0.11108001
      4500.00       0.11109238
      4501.00       0.11110478
      4502.00       0.11109143
      4503.00       0.11110336
      4504.00       0.11114166
      4505.00       0.11115367
      4506.00       0.11113985
      4507.00       0.11115140
      4508.00       0.11116347
      4509.00       0.11117505
      4510.00       0.11118666
      4511.00       0.11119831
      4512.00       0.11118354
      4513.00       0.11122118
      4514.00       0.11120642
      4515.00       0.11121765
      4516.00       0.11122890
      4517.00       0.11124020
      4518.00       0.11125098
      4519.00       0.11126180
      4520.00       0.11124662
      4521.00       0.11125749
      4522.00       0.11129444
      4523.00       0.11127878
      4524.00       0.11126311
      4525.00       0.11130017
      4526.00       0.11133627
      4527.00       0.11132066
      4528.00       0.11133120
      4529.00       0.11131509
      4530.00       0.11132516
      4531.00       0.11136144
      4532.00       0.11137157
      4533.00       0.11135500
      4534.00       0.11136518
      4535.00       0.11137486
      4536.00       0.11138457
      4537.00       0.11139431
      4538.00       0.11137782
      4539.00       0.11138707
      4540.00       0.11142319
      4541.00       0.11140619
      4542.00       0.11141554
      4543.00       0.11139858
      4544.00       0.11140743
      4545.00       0.11144322
      4546.00       0.11145215
      4547.00       0.11143471
      4548.00       0.11141729
      4549.00       0.11145269
      4550.00       0.11146172
      4551.00       0.11144381
      4552.00       0.11145289
      4553.00       0.11146146
      4554.00       0.11149656
      4555.00       0.11150520
      4556.00       0.11146085
      4557.00       0.11146900
      4558.00       0.11147718
      4559.00       0.11151246
      4560.00       0.11149415
      4561.00       0.11150239
      4562.00       0.11148410
      4563.00       0.11151847
      4564.00       0.11152682
      4565.00       0.11150804
      4566.00       0.11151589
      4567.00       0.11155044
      4568.00       0.11153170
      4569.00       0.11153964
      4570.00       0.11154760
      4571.00       0.11152837
      4572.00       0.11156257
      4573.00       0.11157062
      4574.00       0.11152471
      4575.00       0.11155900
      4576.00       0.11156606
      4577.00       0.11154691
      4578.00       0.11158080
      4579.00       0.11156167
      4580.00       0.11154204
      4581.00       0.11157603
      4582.00       0.11158324
      4583.00       0.11156364
      4584.00       0.11157089
      4585.00       0.11157765
      4586.00       0.11158496
      4587.00       0.11156487
      4588.00       0.11157170
      4589.00       0.11155216
      4590.00       0.11161289
      4591.00       0.11159233
      4592.00       0.11157230
      4593.00       0.11157924
      4594.00       0.11158569
      4595.00       0.11159269
      4596.00       0.11159917
      4597.00       0.11157870
      4598.00       0.11158524
      4599.00       0.11159180
      4600.00       0.11162545
      4601.00       0.11157795
      4602.00       0.11158403
      4603.00       0.11161779
      4604.00       0.11162396
      4605.00       0.11160356
      4606.00       0.11158266
      4607.00       0.11158888
      4608.00       0.11159512
      4609.00       0.11160140
      4610.00       0.11158002
      4611.00       0.11161351
      4612.00       0.11161986
      4613.00       0.11159850
      4614.00       0.11163211
      4615.00       0.11158357
      4616.00       0.11158946
      4617.00       0.11162265
      4618.00       0.11162862
      4619.00       0.11158007
      4620.00       0.11158607
      4621.00       0.11159209
      4622.00       0.11159761
      4623.00       0.11163101
      4624.00       0.11158193
      4625.00       0.11158803
      4626.00       0.11159366
      4627.00       0.11159930
      4628.00       0.11157758
      4629.00       0.11158327
      4630.00       0.11158897
      4631.00       0.11159470
      4632.00       0.11160046
      4633.00       0.11157880
      4634.00       0.11155716
      4635.00       0.11158989
      4636.00       0.11159572
      4637.00       0.11157359
      4638.00       0.11155200
      4639.00       0.11155737
      4640.00       0.11159028
      4641.00       0.11159571
      4642.00       0.11157364
      4643.00       0.11157910
      4644.00       0.11158461
      4645.00       0.11159014
      4646.00       0.11156810
      4647.00       0.11154608
      4648.00       0.11155166
      4649.00       0.11155674
      4650.00       0.11159000
      4651.00       0.11154039
      4652.00       0.11157318
      4653.00       0.11157890
      4654.00       0.11158410
      4655.00       0.11156164
      4656.00       0.11156741
      4657.00       0.11154496
      4658.00       0.11157797
      4659.00       0.11155556
      4660.00       0.11153315
      4661.00       0.11153849
      4662.00       0.11154388
      4663.00       0.11154927
      4664.00       0.11155471
      4665.00       0.11150456
      4666.00       0.11151001
      4667.00       0.11151496
      4668.00       0.11154830
      4669.00       0.11149815
      4670.00       0.11150316
      4671.00       0.11153660
      4672.00       0.11151380
      4673.00       0.11151888
      4674.00       0.11149663
      4675.00       0.11150176
      4676.00       0.11150691
      4677.00       0.11151263
      4678.00       0.11148989
      4679.00       0.11149512
      4680.00       0.11150036
      4681.00       0.11150563
      4682.00       0.11148293
      4683.00       0.11146025
      4684.00       0.11146502
      4685.00       0.11147038
      4686.00       0.11147575
      4687.00       0.11145311
      4688.00       0.11145799
      4689.00       0.11149152
      4690.00       0.11146837
      4691.00       0.11144578
      4692.00       0.11145075
      4693.00       0.11145627
      4694.00       0.11146131
      4695.00       0.11143821
      4696.00       0.11141567
      4697.00       0.11142075
      4698.00       0.11145402
      4699.00       0.11143098
      4700.00       0.11143613
      4701.00       0.11141311
      4702.00       0.11139009
      4703.00       0.11142352
      4704.00       0.11139999
      4705.00       0.11140525
      4706.00       0.11138228
      4707.00       0.11138757
      4708.00       0.11142064
      4709.00       0.11136942
      4710.00       0.11137423
      4711.00       0.11137963
      4712.00       0.11138450
      4713.00       0.11138994
      4714.00       0.11133820
      4715.00       0.11134312
      4716.00       0.11134806
      4717.00       0.11135358
      4718.00       0.11135858
      4719.00       0.11133523
      4720.00       0.11131186
      4721.00       0.11134533
      4722.00       0.11135044
      4723.00       0.11132712
      4724.00       0.11130326
      4725.00       0.11130841
      4726.00       0.11134206
      4727.00       0.11131879
      4728.00       0.11129497
      4729.00       0.11127171
      4730.00       0.11130493
      4731.00       0.11128170
      4732.00       0.11125793
      4733.00       0.11126325
      4734.00       0.11126805
      4735.00       0.11127287
      4736.00       0.11127828
      4737.00       0.11122598
      4738.00       0.11125946
      4739.00       0.11123576
      4740.00       0.11124068
      4741.00       0.11121702
      4742.00       0.11122200
      4743.00       0.11122698
      4744.00       0.11123202
      4745.00       0.11123706
      4746.00       0.11121290
      4747.00       0.11118930
      4748.00       0.11119440
      4749.00       0.11119898
      4750.00       0.11120414
      4751.00       0.11115129
      4752.00       0.11115646
      4753.00       0.11118990
      4754.00       0.11116636
      4755.00       0.11114230
      4756.00       0.11114702
      4757.00       0.11115178
      4758.00       0.11115709
      4759.00       0.11116190
      4760.00       0.11110904
      4761.00       0.11111388
      4762.00       0.11111874
      4763.00       0.11112362
      4764.00       0.11109963
      4765.00       0.11110403
      4766.00       0.11110897
      4767.00       0.11108501
      4768.00       0.11106107
      4769.00       0.11103662
      4770.00       0.11104161
      4771.00       0.11107562
      4772.00       0.11105118
      4773.00       0.11102674
      4774.00       0.11103186
      4775.00       0.11103643
      4776.00       0.11104159
      4777.00       0.11104622
      4778.00       0.11099282
      4779.00       0.11096845
      4780.00       0.11100217
      4781.00       0.11100743
      4782.00       0.11095403
      4783.00       0.11095876
      4784.00       0.11096353
      4785.00       0.11096776
      4786.00       0.11097258
      4787.00       0.11094830
      4788.00       0.11092402
      4789.00       0.11092889
      4790.00       0.11093322
      4791.00       0.11087983
      4792.00       0.11088420
      4793.00       0.11088914
      4794.00       0.11089357
      4795.00       0.11089855
      4796.00       0.11087380
      4797.00       0.11084962
      4798.00       0.11085412
      4799.00       0.11088790
      4800.00       0.11083394
      4801.00       0.11083905
      4802.00       0.11081437
      4803.00       0.11081896
      4804.00       0.11085289
      4805.00       0.11079893
      4806.00       0.11080361
      4807.00       0.11077897
      4808.00       0.11078312
      4809.00       0.11075850
      4810.00       0.11076324
      4811.00       0.11076800
      4812.00       0.11074288
      4813.00       0.11074768
      4814.00       0.11072311
      4815.00       0.11072742
      4816.00       0.11070287
      4817.00       0.11070719
      4818.00       0.11068213
      4819.00       0.11065760
      4820.00       0.11069143
      4821.00       0.11066639
      4822.00       0.11067136
      4823.00       0.11064635
      4824.00       0.11062133
      4825.00       0.11065531
      4826.00       0.11063032
      4827.00       0.11060534
      4828.00       0.11058034
      4829.00       0.11061444
      4830.00       0.11061904
      4831.00       0.11062311
      4832.00       0.11056861
      4833.00       0.11057325
      4834.00       0.11057793
      4835.00       0.11055247
      4836.00       0.11052758
      4837.00       0.11053174
      4838.00       0.11050686
      4839.00       0.11054072
      4840.00       0.11051586
      4841.00       0.11049045
      4842.00       0.11046505
      4843.00       0.11049958
      4844.00       0.11047421
      4845.00       0.11047854
      4846.00       0.11042348
      4847.00       0.11042784
      4848.00       0.11043224
      4849.00       0.11043664
      4850.00       0.11041133
      4851.00       0.11041577
      4852.00       0.11042025
      4853.00       0.11039496
      4854.00       0.11039947
      4855.00       0.11037421
      4856.00       0.11034839
      4857.00       0.11035295
      4858.00       0.11032771
      4859.00       0.11030194
      4860.00       0.11030655
      4861.00       0.11031062
      4862.00       0.11031529
      4863.00       0.11028954
      4864.00       0.11026436
      4865.00       0.11023863
      4866.00       0.11024279
      4867.00       0.11024699
      4868.00       0.11022184
      4869.00       0.11022608
      4870.00       0.11023034
      4871.00       0.11020466
      4872.00       0.11020896
      4873.00       0.11018330
      4874.00       0.11015766
      4875.00       0.11016144
      4876.00       0.11016581
      4877.00       0.11014019
      4878.00       0.11011459
      4879.00       0.11011844
      4880.00       0.11012289
      4881.00       0.11009731
      4882.00       0.11007118
      4883.00       0.11007511
      4884.00       0.11007963
      4885.00       0.11008362
      4886.00       0.11002744
      4887.00       0.11003201
      4888.00       0.11000593
      4889.00       0.11004010
      4890.00       0.11001405
      4891.00       0.10998801
      4892.00       0.10996197
      4893.00       0.10999624
      4894.00       0.10994007
      4895.00       0.10994366
      4896.00       0.10991766
      4897.00       0.10989167
      4898.00       0.10992552
      4899.00       0.10989954
      4900.00       0.10990323
      4901.00       0.10987673
      4902.00       0.10988101
      4903.00       0.10988477
      4904.00       0.10982803
      4905.00       0.10980156
      4906.00       0.10980534
      4907.00       0.10980915
      4908.00       0.10978269
      4909.00       0.10978655
      4910.00       0.10976011
      4911.00       0.10976401
      4912.00       0.10976735
      4913.00       0.10971062
      4914.00       0.10971398
      4915.00       0.10968759
      4916.00       0.10969100
      4917.00       0.10969501
      4918.00       0.10963771
      4919.00       0.10964115
      4920.00       0.10964464
      4921.00       0.10964815
      4922.00       0.10962126
      4923.00       0.10959438
      4924.00       0.10959736
      4925.00       0.10960094
      4926.00       0.10957408
      4927.00       0.10954667
      4928.00       0.10951983
      4929.00       0.10952290
      4930.00       0.10952657
      4931.00       0.10949918
      4932.00       0.10950232
      4933.00       0.10947496
      4934.00       0.10947813
      4935.00       0.10948132
      4936.00       0.10942345
      4937.00       0.10942609
      4938.00       0.10939878
      4939.00       0.10940203
      4940.00       0.10940472
      4941.00       0.10934686
      4942.00       0.10931900
      4943.00       0.10932174
      4944.00       0.10935513
      4945.00       0.10926607
      4946.00       0.10926886
      4947.00       0.10927167
      4948.00       0.10927450
      4949.00       0.10924671
      4950.00       0.10924902
      4951.00       0.10922124
      4952.00       0.10922358
      4953.00       0.10919581
      4954.00       0.10916749
      4955.00       0.10913918
      4956.00       0.10917228
      4957.00       0.10911327
      4958.00       0.10911570
      4959.00       0.10908742
      4960.00       0.10908987
      4961.00       0.10906104
      4962.00       0.10906352
      4963.00       0.10903473
      4964.00       0.10900648
      4965.00       0.10900845
      4966.00       0.10901045
      4967.00       0.10898165
      4968.00       0.10892210
      4969.00       0.10892412
      4970.00       0.10895641
      4971.00       0.10892765
      4972.00       0.10886809
      4973.00       0.10886960
      4974.00       0.10887115
      4975.00       0.10887329
      4976.00       0.10881314
      4977.00       0.10881472
      4978.00       0.10878545
      4979.00       0.10878651
      4980.00       0.10875725
      4981.00       0.10872801
      4982.00       0.10872908
      4983.00       0.10869986
      4984.00       0.10873191
      4985.00       0.10870212
      4986.00       0.10864141
      4987.00       0.10864257
      4988.00       0.10864377
      4989.00       0.10861400
      4990.00       0.10858368
      4991.00       0.10855393
      4992.00       0.10852362
      4993.00       0.10855530
      4994.00       0.10852557
      4995.00       0.10849527
      4996.00       0.10846500
      4997.00       0.10846517
      4998.00       0.10846594
      4999.00       0.10843568
      5000.00       0.10840484
      5001.00       0.10840565
      5002.00       0.10840591
      5003.00       0.10837510
      5004.00       0.10834430
      5005.00       0.10831351
      5006.00       0.10831382
      5007.00       0.10831356
      5008.00       0.10825170
      5009.00       0.10822037
      5010.00       0.10822070
      5011.00       0.10822051
      5012.00       0.10818919
      5013.00       0.10815788
      5014.00       0.10815771
      5015.00       0.10815700
      5016.00       0.10812570
      5017.00       0.10809385
      5018.00       0.10806258
      5019.00       0.10803073
      5020.00       0.10803007
      5021.00       0.10802942
      5022.00       0.10799760
      5023.00       0.10796522
      5024.00       0.10796460
      5025.00       0.10796345
      5026.00       0.10793166
      5027.00       0.10786805
      5028.00       0.10786691
      5029.00       0.10786581
      5030.00       0.10786472
      5031.00       0.10780053
      5032.00       0.10779946
      5033.00       0.10776655
      5034.00       0.10776493
      5035.00       0.10773202
      5036.00       0.10766788
      5037.00       0.10766626
      5038.00       0.10766468
      5039.00       0.10763122
      5040.00       0.10759837
      5041.00       0.10759623
      5042.00       0.10759413
      5043.00       0.10756070
      5044.00       0.10752727
      5045.00       0.10749388
      5046.00       0.10749180
      5047.00       0.10745783
      5048.00       0.10745522
      5049.00       0.10742181
      5050.00       0.10738786
      5051.00       0.10738470
      5052.00       0.10735075
      5053.00       0.10734818
      5054.00       0.10728227
      5055.00       0.10727974
      5056.00       0.10724523
      5057.00       0.10724213
      5058.00       0.10720763
      5059.00       0.10717254
      5060.00       0.10716948
      5061.00       0.10716586
      5062.00       0.10713138
      5063.00       0.10709633
      5064.00       0.10706128
      5065.00       0.10705770
      5066.00       0.10702208
      5067.00       0.10698704
      5068.00       0.10695143
      5069.00       0.10691584
      5070.00       0.10691170
      5071.00       0.10690760
      5072.00       0.10687202
      5073.00       0.10683643
      5074.00       0.10683177
      5075.00       0.10679619
      5076.00       0.10676004
      5077.00       0.10672389
      5078.00       0.10668776
      5079.00       0.10668256
      5080.00       0.10667795
      5081.00       0.10664124
      5082.00       0.10657360
      5083.00       0.10656843
      5084.00       0.10659482
      5085.00       0.10649504
      5086.00       0.10648931
      5087.00       0.10648417
      5088.00       0.10644692
      5089.00       0.10644123
      5090.00       0.10640398
      5091.00       0.10636673
      5092.00       0.10636107
      5093.00       0.10632383
      5094.00       0.10628600
      5095.00       0.10624878
      5096.00       0.10621096
      5097.00       0.10620476
      5098.00       0.10616696
      5099.00       0.10616076
      5100.00       0.10612239
      5101.00       0.10611621
      5102.00       0.10607784
      5103.00       0.10603948
      5104.00       0.10600169
      5105.00       0.10599438
      5106.00       0.10595602
      5107.00       0.10594931
      5108.00       0.10587873
      5109.00       0.10587204
      5110.00       0.10583311
      5111.00       0.10582583
      5112.00       0.10578691
      5113.00       0.10574800
      5114.00       0.10570909
      5115.00       0.10570126
      5116.00       0.10566234
      5117.00       0.10562285
      5118.00       0.10558337
      5119.00       0.10557557
      5120.00       0.10553609
      5121.00       0.10549661
      5122.00       0.10548824
      5123.00       0.10544877
      5124.00       0.10540871
      5125.00       0.10540036
      5126.00       0.10532861
      5127.00       0.10532027
      5128.00       0.10531194
      5129.00       0.10527130
      5130.00       0.10523128
      5131.00       0.10519065
      5132.00       0.10518235
      5133.00       0.10514173
      5134.00       0.10513285
      5135.00       0.10505992
      5136.00       0.10505104
      5137.00       0.10504218
      5138.00       0.10500099
      5139.00       0.10492865
      5140.00       0.10491920
      5141.00       0.10487802
      5142.00       0.10486858
      5143.00       0.10482683
      5144.00       0.10478564
      5145.00       0.10474446
      5146.00       0.10473446
      5147.00       0.10469271
      5148.00       0.10468331
      5149.00       0.10460978
      5150.00       0.10456804
      5151.00       0.10455745
      5152.00       0.10454749
      5153.00       0.10447337
      5154.00       0.10446341
      5155.00       0.10442106
      5156.00       0.10441054
      5157.00       0.10436819
      5158.00       0.10429410
      5159.00       0.10428354
      5160.00       0.10427302
      5161.00       0.10423011
      5162.00       0.10418778
      5163.00       0.10414487
      5164.00       0.10410197
      5165.00       0.10409086
      5166.00       0.10404796
      5167.00       0.10400506
      5168.00       0.10399336
      5169.00       0.10395047
      5170.00       0.10390698
      5171.00       0.10386409
      5172.00       0.10382059
      5173.00       0.10380892
      5174.00       0.10376544
      5175.00       0.10375377
      5176.00       0.10370970
      5177.00       0.10363441
      5178.00       0.10365397
      5179.00       0.10361049
      5180.00       0.10353460
      5181.00       0.10352234
      5182.00       0.10347828
      5183.00       0.10343421
      5184.00       0.10342197
      5185.00       0.10337731
      5186.00       0.10333324
      5187.00       0.10328859
      5188.00       0.10327637
      5189.00       0.10323170
      5190.00       0.10318707
      5191.00       0.10314241
      5192.00       0.10312959
      5193.00       0.10308493
      5194.00       0.10303969
      5195.00       0.10299503
      5196.00       0.10301348
      5197.00       0.10296824
      5198.00       0.10292359
      5199.00       0.10284650
      5200.00       0.10280065
      5201.00       0.10278724
      5202.00       0.10277386
      5203.00       0.10272861
      5204.00       0.10265093
      5205.00       0.10263754
      5206.00       0.10262355
      5207.00       0.10254585
      5208.00       0.10253188
      5209.00       0.10245418
      5210.00       0.10244019
      5211.00       0.10239436
      5212.00       0.10234792
      5213.00       0.10230209
      5214.00       0.10231935
      5215.00       0.10224167
      5216.00       0.10219522
      5217.00       0.10214880
      5218.00       0.10213421
      5219.00       0.10208777
      5220.00       0.10207320
      5221.00       0.10199431
      5222.00       0.10197973
      5223.00       0.10193269
      5224.00       0.10188625
      5225.00       0.10187107
      5226.00       0.10179218
      5227.00       0.10177700
      5228.00       0.10176182
      5229.00       0.10171477
      5230.00       0.10163589
      5231.00       0.10158826
      5232.00       0.10157307
      5233.00       0.10155727
      5234.00       0.10147839
      5235.00       0.10143075
      5236.00       0.10141495
      5237.00       0.10139917
      5238.00       0.10135151
      5239.00       0.10127202
      5240.00       0.10122439
      5241.00       0.10120797
      5242.00       0.10119217
      5243.00       0.10114393
      5244.00       0.10109628
      5245.00       0.10104803
      5246.00       0.10099979
      5247.00       0.10098338
      5248.00       0.10093512
      5249.00       0.10085503
      5250.00       0.10083861
      5251.00       0.10079036
      5252.00       0.10077334
      5253.00       0.10072507
      5254.00       0.10064438
      5255.00       0.10062734
      5256.00       0.10057908
      5257.00       0.10053022
      5258.00       0.10048135
      5259.00       0.10046430
      5260.00       0.10041484
      5261.00       0.10039777
      5262.00       0.10031710
      5263.00       0.10026762
      5264.00       0.10025055
      5265.00       0.10020107
      5266.00       0.10015220
      5267.00       0.10013452
      5268.00       0.10005322
      5269.00       0.10003553
      5270.00      0.099986059
      5271.00      0.099936559
      5272.00      0.099887074
      5273.00      0.099868778
      5274.00      0.099819272
      5275.00      0.099769160
      5276.00      0.099719661
      5277.00      0.099669556
      5278.00      0.099651240
      5279.00      0.099601125
      5280.00      0.099551013
      5281.00      0.099500893
      5282.00      0.099450776
      5283.00      0.099432439
      5284.00      0.099382311
      5285.00      0.099300411
      5286.00      0.099249685
      5287.00      0.099263099
      5288.00      0.099180590
      5289.00      0.099129844
      5290.00      0.099111469
      5291.00      0.099092504
      5292.00      0.099009970
      5293.00      0.098990988
      5294.00      0.098908484
      5295.00      0.098857717
      5296.00      0.098838703
      5297.00      0.098787947
      5298.00      0.098704844
      5299.00      0.098654088
      5300.00      0.098666172
      5301.00      0.098615399
      5302.00      0.098564015
      5303.00      0.098513236
      5304.00      0.098461847
      5305.00      0.098410472
      5306.00      0.098359077
      5307.00      0.098308285
      5308.00      0.098288600
      5309.00      0.098237195
      5310.00      0.098216892
      5311.00      0.098165485
      5312.00      0.098082370
      5313.00      0.098030952
      5314.00      0.098011235
      5315.00      0.097959202
      5316.00      0.097907785
      5317.00      0.097856347
      5318.00      0.097820154
      5319.00      0.097783961
      5320.00      0.097732513
      5321.00      0.097664625
      5322.00      0.097612570
      5323.00      0.097592802
      5324.00      0.097556574
      5325.00      0.097488668
      5326.00      0.097436615
      5327.00      0.097384530
      5328.00      0.097364128
      5329.00      0.097312030
      5330.00      0.097244131
      5331.00      0.097192051
      5332.00      0.097155780
      5333.00      0.097119510
      5334.00      0.097051590
      5335.00      0.097014701
      5336.00      0.096962601
      5337.00      0.096926304
      5338.00      0.096873577
      5339.00      0.096805664
      5340.00      0.096769351
      5341.00      0.096748230
      5342.00      0.096696097
      5343.00      0.096627559
      5344.00      0.096575422
      5345.00      0.096522670
      5346.00      0.096501507
      5347.00      0.096449369
      5348.00      0.096396603
      5349.00      0.096344456
      5350.00      0.096307470
      5351.00      0.096254683
      5352.00      0.096201920
      5353.00      0.096133976
      5354.00      0.096096959
      5355.00      0.096059948
      5356.00      0.096022937
      5357.00      0.095954366
      5358.00      0.095901556
      5359.00      0.095865135
      5360.00      0.095828088
      5361.00      0.095775265
      5362.00      0.095706698
      5363.00      0.095653875
      5364.00      0.095632563
      5365.00      0.095579724
      5366.00      0.095511139
      5367.00      0.095458306
      5368.00      0.095436950
      5369.00      0.095384095
      5370.00      0.095346997
      5371.00      0.095262643
      5372.00      0.095225527
      5373.00      0.095188393
      5374.00      0.095151264
      5375.00      0.095082656
      5376.00      0.095029760
      5377.00      0.094992612
      5378.00      0.094939715
      5379.00      0.094902553
      5380.00      0.094818216
      5381.00      0.094781018
      5382.00      0.094759559
      5383.00      0.094706637
      5384.00      0.094622296
      5385.00      0.094585095
      5386.00      0.094547865
      5387.00      0.094494940
      5388.00      0.094457695
      5389.00      0.094389055
      5390.00      0.094336116
      5391.00      0.094314557
      5392.00      0.094245910
      5393.00      0.094192947
      5394.00      0.094139990
      5395.00      0.094118384
      5396.00      0.094065411
      5397.00      0.094012426
      5398.00      0.093943767
      5399.00      0.093891395
      5400.00      0.093854078
      5401.00      0.093816755
      5402.00      0.093748076
      5403.00      0.093695072
      5404.00      0.093642682
      5405.00      0.093605318
      5406.00      0.093552302
      5407.00      0.093499893
      5408.00      0.093446860
      5409.00      0.093409475
      5410.00      0.093372695
      5411.00      0.093303995
      5412.00      0.093251563
      5413.00      0.093198512
      5414.00      0.093177353
      5415.00      0.093108638
      5416.00      0.093056181
      5417.00      0.093003105
      5418.00      0.092966268
      5419.00      0.092913798
      5420.00      0.092845086
      5421.00      0.092792603
      5422.00      0.092755742
      5423.00      0.092718868
      5424.00      0.092681992
      5425.00      0.092598269
      5426.00      0.092561374
      5427.00      0.092524466
      5428.00      0.092471946
      5429.00      0.092403837
      5430.00      0.092351311
      5431.00      0.092298784
      5432.00      0.092277432
      5433.00      0.092209917
      5434.00      0.092157376
      5435.00      0.092104824
      5436.00      0.092084056
      5437.00      0.092031497
      5438.00      0.091963970
      5439.00      0.091911393
      5440.00      0.091859437
      5441.00      0.091822428
      5442.00      0.091770464
      5443.00      0.091718495
      5444.00      0.091666514
      5445.00      0.091614539
      5446.00      0.091578104
      5447.00      0.091526108
      5448.00      0.091474119
      5449.00      0.091422112
      5450.00      0.091385648
      5451.00      0.091333638
      5452.00      0.091266700
      5453.00      0.091214683
      5454.00      0.091178182
      5455.00      0.091126774
      5456.00      0.091075354
      5457.00      0.091007799
      5458.00      0.090971885
      5459.00      0.090935981
      5460.00      0.090884542
      5461.00      0.090817594
      5462.00      0.090781027
      5463.00      0.090730201
      5464.00      0.090694253
      5465.00      0.090642782
      5466.00      0.090575814
      5467.00      0.090540465
      5468.00      0.090504482
      5469.00      0.090453622
      5470.00      0.090386637
      5471.00      0.090320289
      5472.00      0.090300386
      5473.00      0.090248872
      5474.00      0.090197988
      5475.00      0.090131618
      5476.00      0.090080727
      5477.00      0.090061395
      5478.00      0.090010486
      5479.00      0.089944103
      5480.00      0.089893819
      5481.00      0.089858357
      5482.00      0.089808052
      5483.00      0.089772579
      5484.00      0.089691364
      5485.00      0.089641045
      5486.00      0.089621621
      5487.00      0.089571289
      5488.00      0.089490084
      5489.00      0.089455811
      5490.00      0.089420902
      5491.00      0.089370554
      5492.00      0.089320823
      5493.00      0.089255043
      5494.00      0.089205310
      5495.00      0.089170996
      5496.00      0.089136664
      5497.00      0.089071494
      5498.00      0.089021741
      5499.00      0.088971981
      5500.00      0.088937625
      5501.00      0.088888475
      5502.00      0.088823304
      5503.00      0.088774151
      5504.00      0.088755790
      5505.00      0.088705990
      5506.00      0.088641430
      5507.00      0.088592252
      5508.00      0.088543080
      5509.00      0.088509911
      5510.00      0.088460713
      5511.00      0.088396152
      5512.00      0.088347576
      5513.00      0.088329120
      5514.00      0.088265169
      5515.00      0.088216590
      5516.00      0.088152631
      5517.00      0.088119398
      5518.00      0.088086159
      5519.00      0.088037554
      5520.00      0.087958243
      5521.00      0.087910259
      5522.00      0.087892333
      5523.00      0.087844338
      5524.00      0.087781004
      5525.00      0.087733001
      5526.00      0.087684361
      5527.00      0.087652313
      5528.00      0.087619628
      5529.00      0.087540945
      5530.00      0.087492914
      5531.00      0.087476161
      5532.00      0.087413431
      5533.00      0.087365386
      5534.00      0.087317974
      5535.00      0.087255246
      5536.00      0.087238435
      5537.00      0.087191004
      5538.00      0.087128898
      5539.00      0.087081459
      5540.00      0.087049944
      5541.00      0.087017794
      5542.00      0.086970961
      5543.00      0.086893553
      5544.00      0.086846720
      5545.00      0.086815175
      5546.00      0.086768322
      5547.00      0.086706834
      5548.00      0.086675264
      5549.00      0.086629041
      5550.00      0.086598092
      5551.00      0.086551221
      5552.00      0.086474450
      5553.00      0.086443468
      5554.00      0.086397860
      5555.00      0.086366876
      5556.00      0.086305362
      5557.00      0.086244484
      5558.00      0.086229365
      5559.00      0.086183092
      5560.00      0.086137444
      5561.00      0.086076553
      5562.00      0.086030903
      5563.00      0.086001137
      5564.00      0.085955473
      5565.00      0.085895215
      5566.00      0.085849549
      5567.00      0.085819741
      5568.00      0.085774699
      5569.00      0.085729652
      5570.00      0.085669386
      5571.00      0.085624968
      5572.00      0.085610353
      5573.00      0.085550703
      5574.00      0.085490426
      5575.00      0.085445988
      5576.00      0.085416754
      5577.00      0.085372320
      5578.00      0.085327865
      5579.00      0.085268850
      5580.00      0.085224392
      5581.00      0.085195771
      5582.00      0.085167140
      5583.00      0.085092921
      5584.00      0.085064272
      5585.00      0.085005243
      5586.00      0.084991775
      5587.00      0.084932733
      5588.00      0.084889516
      5589.00      0.084831121
      5590.00      0.084803073
      5591.00      0.084775021
      5592.00      0.084701445
      5593.00      0.084658212
      5594.00      0.084630135
      5595.00      0.084587525
      5596.00      0.084544274
      5597.00      0.084501665
      5598.00      0.084459046
      5599.00      0.084416421
      5600.00      0.084373798
      5601.00      0.084316659
      5602.00      0.084289173
      5603.00      0.084232023
      5604.00      0.084205169
      5605.00      0.084163169
      5606.00      0.084106023
      5607.00      0.084064005
      5608.00      0.084037124
      5609.00      0.084010876
      5610.00      0.083939228
      5611.00      0.083897196
      5612.00      0.083855803
      5613.00      0.083829530
      5614.00      0.083788773
      5615.00      0.083732247
      5616.00      0.083691489
      5617.00      0.083665191
      5618.00      0.083624411
      5619.00      0.083568528
      5620.00      0.083527741
      5621.00      0.083487604
      5622.00      0.083461929
      5623.00      0.083421771
      5624.00      0.083365876
      5625.00      0.083325717
      5626.00      0.083285553
      5627.00      0.083246040
      5628.00      0.083205862
      5629.00      0.083150606
      5630.00      0.083111077
      5631.00      0.083086637
      5632.00      0.083047098
      5633.00      0.082992471
      5634.00      0.082952925
      5635.00      0.082929107
      5636.00      0.082889552
      5637.00      0.082850643
      5638.00      0.082796654
      5639.00      0.082757740
      5640.00      0.082733888
      5641.00      0.082695609
      5642.00      0.082626552
      5643.00      0.082588269
      5644.00      0.082580105
      5645.00      0.082541811
      5646.00      0.082503518
      5647.00      0.082450160
      5648.00      0.082412502
      5649.00      0.082374841
      5650.00      0.082336530
      5651.00      0.082283821
      5652.00      0.082246803
      5653.00      0.082239226
      5654.00      0.082186504
      5655.00      0.082149468
      5656.00      0.082097400
      5657.00      0.082045327
      5658.00      0.082038363
      5659.00      0.082001318
      5660.00      0.081934856
      5661.00      0.081897808
      5662.00      0.081891473
      5663.00      0.081840027
      5664.00      0.081803621
      5665.00      0.081752832
      5666.00      0.081716421
      5667.00      0.081695675
      5668.00      0.081659910
      5669.00      0.081594094
      5670.00      0.081573331
      5671.00      0.081522542
      5672.00      0.081517446
      5673.00      0.081467284
      5674.00      0.081417137
      5675.00      0.081397010
      5676.00      0.081361870
      5677.00      0.081326723
      5678.00      0.081292228
      5679.00      0.081242721
      5680.00      0.081208216
      5681.00      0.081188721
      5682.00      0.081139209
      5683.00      0.081089700
      5684.00      0.081055835
      5685.00      0.081051976
      5686.00      0.081018116
      5687.00      0.080969244
      5688.00      0.080920377
      5689.00      0.080887156
      5690.00      0.080868928
      5691.00      0.080835701
      5692.00      0.080787483
      5693.00      0.080754252
      5694.00      0.080721024
      5695.00      0.080688447
      5696.00      0.080640884
      5697.00      0.080623277
      5698.00      0.080575708
      5699.00      0.080558105
      5700.00      0.080526164
      5701.00      0.080478593
      5702.00      0.080431675
      5703.00      0.080429688
      5704.00      0.080382765
      5705.00      0.080336495
      5706.00      0.080319524
      5707.00      0.080273255
      5708.00      0.080256928
      5709.00      0.080225627
      5710.00      0.080164389
      5711.00      0.080133738
      5712.00      0.080117397
      5713.00      0.080086749
      5714.00      0.080056094
      5715.00      0.080010478
      5716.00      0.079979820
      5717.00      0.079964788
      5718.00      0.079934126
      5719.00      0.079874196
      5720.00      0.079844192
      5721.00      0.079844113
      5722.00      0.079799137
      5723.00      0.079769122
      5724.00      0.079724810
      5725.00      0.079680495
      5726.00      0.079680399
      5727.00      0.079636076
      5728.00      0.079592414
      5729.00      0.079578005
      5730.00      0.079549310
      5731.00      0.079519941
      5732.00      0.079491233
      5733.00      0.079447569
      5734.00      0.079418859
      5735.00      0.079405101
      5736.00      0.079362091
      5737.00      0.079318429
      5738.00      0.079290371
      5739.00      0.079277273
      5740.00      0.079234258
      5741.00      0.079221154
      5742.00      0.079163848
      5743.00      0.079135791
      5744.00      0.079123332
      5745.00      0.079080979
      5746.00      0.079038637
      5747.00      0.079026171
      5748.00      0.078998768
      5749.00      0.078971365
      5750.00      0.078944609
      5751.00      0.078902919
      5752.00      0.078875508
      5753.00      0.078848761
      5754.00      0.078822667
      5755.00      0.078780978
      5756.00      0.078754219
      5757.00      0.078728128
      5758.00      0.078702044
      5759.00      0.078690232
      5760.00      0.078634253
      5761.00      0.078608822
      5762.00      0.078582730
      5763.00      0.078571579
      5764.00      0.078531200
      5765.00      0.078505768
      5766.00      0.078479671
      5767.00      0.078454233
      5768.00      0.078428802
      5769.00      0.078389084
      5770.00      0.078348711
      5771.00      0.078338885
      5772.00      0.078313442
      5773.00      0.078273732
      5774.00      0.078248955
      5775.00      0.078209242
      5776.00      0.078214352
      5777.00      0.078174634
      5778.00      0.078135586
      5779.00      0.078111471
      5780.00      0.078086695
      5781.00      0.078062585
      5782.00      0.078023541
      5783.00      0.077999431
      5784.00      0.077975312
      5785.00      0.077966810
      5786.00      0.077927758
      5787.00      0.077889371
      5788.00      0.077865932
      5789.00      0.077856758
      5790.00      0.077833309
      5791.00      0.077795584
      5792.00      0.077772142
      5793.00      0.077733752
      5794.00      0.077725917
      5795.00      0.077702473
      5796.00      0.077649814
      5797.00      0.077627036
      5798.00      0.077619198
      5799.00      0.077596424
      5800.00      0.077573646
      5801.00      0.077520977
      5802.00      0.077498868
      5803.00      0.077491035
      5804.00      0.077468923
      5805.00      0.077416927
      5806.00      0.077394821
      5807.00      0.077387655
      5808.00      0.077365542
      5809.00      0.077343434
      5810.00      0.077292115
      5811.00      0.077270002
      5812.00      0.077263509
      5813.00      0.077226456
      5814.00      0.077190078
      5815.00      0.077168640
      5816.00      0.077162150
      5817.00      0.077140716
      5818.00      0.077104998
      5819.00      0.077083571
      5820.00      0.077047857
      5821.00      0.077041372
      5822.00      0.077005662
      5823.00      0.076984900
      5824.00      0.076964135
      5825.00      0.076943376
      5826.00      0.076922614
      5827.00      0.076901859
      5828.00      0.076851196
      5829.00      0.076831107
      5830.00      0.076810353
      5831.00      0.076805221
      5832.00      0.076770181
      5833.00      0.076734472
      5834.00      0.076729348
      5835.00      0.076709266
      5836.00      0.076689854
      5837.00      0.076639860
      5838.00      0.076619786
      5839.00      0.076600375
      5840.00      0.076595257
      5841.00      0.076545939
      5842.00      0.076525859
      5843.00      0.076506456
      5844.00      0.076487059
      5845.00      0.076467654
      5846.00      0.076418341
      5847.00      0.076413896
      5848.00      0.076395171
      5849.00      0.076375778
      5850.00      0.076342091
      5851.00      0.076307738
      5852.00      0.076289012
      5853.00      0.076285255
      5854.00      0.076265867
      5855.00      0.076232184
      5856.00      0.076198500
      5857.00      0.076194760
      5858.00      0.076176718
      5859.00      0.076128072
      5860.00      0.076124332
      5861.00      0.076091323
      5862.00      0.076087591
      5863.00      0.076054585
      5864.00      0.076021580
      5865.00      0.076002879
      5866.00      0.075999825
      5867.00      0.075966823
      5868.00      0.075948800
      5869.00      0.075915802
      5870.00      0.075897777
      5871.00      0.075880428
      5872.00      0.075862415
      5873.00      0.075830093
      5874.00      0.075797097
      5875.00      0.075809720
      5876.00      0.075776727
      5877.00      0.075744403
      5878.00      0.075712085
      5879.00      0.075694752
      5880.00      0.075692409
      5881.00      0.075660087
      5882.00      0.075627779
      5883.00      0.075610449
      5884.00      0.075593127
      5885.00      0.075576471
      5886.00      0.075559150
      5887.00      0.075511858
      5888.00      0.075495211
      5889.00      0.075493568
      5890.00      0.075476251
      5891.00      0.075444621
      5892.00      0.075427982
      5893.00      0.075411350
      5894.00      0.075394723
      5895.00      0.075378093
      5896.00      0.075331464
      5897.00      0.075314841
      5898.00      0.075298215
      5899.00      0.075296595
      5900.00      0.075250648
      5901.00      0.075234024
      5902.00      0.075218089
      5903.00      0.075201476
      5904.00      0.075170533
      5905.00      0.075154594
      5906.00      0.075122980
      5907.00      0.075107050
      5908.00      0.075091120
      5909.00      0.075060186
      5910.00      0.075044258
      5911.00      0.075043353
      5912.00      0.075027437
      5913.00      0.074997182
      5914.00      0.074951233
      5915.00      0.074935318
      5916.00      0.074935099
      5917.00      0.074904176
      5918.00      0.074888943
      5919.00      0.074873720
      5920.00      0.074857811
      5921.00      0.074827572
      5922.00      0.074812351
      5923.00      0.074767088
      5924.00      0.074751868
      5925.00      0.074751681
      5926.00      0.074736467
      5927.00      0.074706905
      5928.00      0.074676668
      5929.00      0.074647120
      5930.00      0.074646939
      5931.00      0.074632416
      5932.00      0.074602185
      5933.00      0.074587667
      5934.00      0.074573159
      5935.00      0.074558643
      5936.00      0.074514065
      5937.00      0.074499547
      5938.00      0.074485043
      5939.00      0.074486265
      5940.00      0.074456721
      5941.00      0.074427180
      5942.00      0.074413364
      5943.00      0.074398876
      5944.00      0.074385069
      5945.00      0.074356215
      5946.00      0.074327361
      5947.00      0.074313559
      5948.00      0.074314810
      5949.00      0.074285958
      5950.00      0.074257115
      5951.00      0.074243322
      5952.00      0.074245281
      5953.00      0.074216431
      5954.00      0.074173215
      5955.00      0.074174491
      5956.00      0.074146331
      5957.00      0.074148310
      5958.00      0.074120147
      5959.00      0.074091997
      5960.00      0.074063841
      5961.00      0.074065835
      5962.00      0.074052757
      5963.00      0.074025287
      5964.00      0.073997138
      5965.00      0.073984751
      5966.00      0.073972368
      5967.00      0.073959312
      5968.00      0.073931848
      5969.00      0.073904399
      5970.00      0.073907104
      5971.00      0.073879653
      5972.00      0.073867286
      5973.00      0.073840523
      5974.00      0.073813075
      5975.00      0.073816493
      5976.00      0.073789047
      5977.00      0.073762294
      5978.00      0.073750621
      5979.00      0.073754065
      5980.00      0.073727311
      5981.00      0.073715659
      5982.00      0.073688911
      5983.00      0.073662161
      5984.00      0.073666309
      5985.00      0.073639562
      5986.00      0.073613504
      5987.00      0.073587449
      5988.00      0.073590925
      5989.00      0.073579990
      5990.00      0.073553935
      5991.00      0.073543686
      5992.00      0.073517643
      5993.00      0.073521836
      5994.00      0.073496477
      5995.00      0.073470439
      5996.00      0.073445088
      5997.00      0.073449985
      5998.00      0.073439078
      5999.00      0.073413725
      6000.00      0.073373946
      6001.00      0.073363731
      6002.00      0.073368653
      6003.00      0.073358453
      6004.00      0.073333801
      6005.00      0.073294016
      6006.00      0.073298964
      6007.00      0.073289462
      6008.00      0.073279967
      6009.00      0.073240181
      6010.00      0.073230689
      6011.00      0.073237050
      6012.00      0.073212414
      6013.00      0.073188470
      6014.00      0.073163842
      6015.00      0.073155052
      6016.00      0.073146284
      6017.00      0.073137511
      6018.00      0.073113578
      6019.00      0.073104814
      6020.00      0.073096752
      6021.00      0.073087991
      6022.00      0.073049587
      6023.00      0.073040836
      6024.00      0.073017609
      6025.00      0.073024739
      6026.00      0.073016699
      6027.00      0.072978294
      6028.00      0.072970252
      6029.00      0.072978107
      6030.00      0.072954890
      6031.00      0.072932368
      6032.00      0.072909856
      6033.00      0.072902531
      6034.00      0.072895208
      6035.00      0.072872694
      6036.00      0.072865390
      6037.00      0.072842882
      6038.00      0.072836276
      6039.00      0.072829671
      6040.00      0.072791969
      6041.00      0.072800578
      6042.00      0.072778778
      6043.00      0.072772188
      6044.00      0.072766304
      6045.00      0.072729296
      6046.00      0.072737942
      6047.00      0.072732076
      6048.00      0.072710976
      6049.00      0.072689891
      6050.00      0.072684034
      6051.00      0.072662945
      6052.00      0.072672343
      6053.00      0.072651254
      6054.00      0.072615631
      6055.00      0.072625734
      6056.00      0.072619910
      6057.00      0.072599534
      6058.00      0.072594409
      6059.00      0.072574739
      6060.00      0.072554364
      6061.00      0.072549265
      6062.00      0.072560125
      6063.00      0.072525192
      6064.00      0.072505536
      6065.00      0.072531693
      6066.00      0.072512037
      6067.00      0.072492381
      6068.00      0.072472728
      6069.00      0.072453774
      6070.00      0.072464702
      6071.00      0.072445755
      6072.00      0.072426813
      6073.00      0.072423165
      6074.00      0.072420226
      6075.00      0.072416587
      6076.00      0.072397654
      6077.00      0.072379427
      6078.00      0.072361197
      6079.00      0.072373602
      6080.00      0.072355375
      6081.00      0.072337152
      6082.00      0.072318940
      6083.00      0.072332073
      6084.00      0.072329190
      6085.00      0.072311681
      6086.00      0.072294175
      6087.00      0.072276668
      6088.00      0.072289849
      6089.00      0.072273048
      6090.00      0.072255559
      6091.00      0.072254111
      6092.00      0.072252679
      6093.00      0.072235894
      6094.00      0.072234478
      6095.00      0.072217697
      6096.00      0.072200920
      6097.00      0.072215583
      6098.00      0.072198821
      6099.00      0.072182754
      6100.00      0.072166693
      6101.00      0.072166011
      6102.00      0.072166040
      6103.00      0.072165381
      6104.00      0.072165430
      6105.00      0.072149386
      6106.00      0.072118655
      6107.00      0.072118709
      6108.00      0.072103382
      6109.00      0.072134984
      6110.00      0.072104241
      6111.00      0.072089617
      6112.00      0.072089714
      6113.00      0.072075099
      6114.00      0.072091351
      6115.00      0.072061307
      6116.00      0.072062840
      6117.00      0.072079129
      6118.00      0.072049785
      6119.00      0.072081555
      6120.00      0.072036756
      6121.00      0.072038331
      6122.00      0.072055377
      6123.00      0.072026036
      6124.00      0.072012870
      6125.00      0.072014470
      6126.00      0.072001314
      6127.00      0.072033901
      6128.00      0.072005260
      6129.00      0.071976634
      6130.00      0.071978969
      6131.00      0.071965833
      6132.00      0.071999890
      6133.00      0.071971252
      6134.00      0.071974336
      6135.00      0.071976726
      6136.00      0.071948799
      6137.00      0.071967420
      6138.00      0.071939495
      6139.00      0.071927091
      6140.00      0.071961279
      6141.00      0.071934051
      6142.00      0.071921670
      6143.00      0.071925516
      6144.00      0.071913140
      6145.00      0.071932568
      6146.00      0.071905337
      6147.00      0.071909237
      6148.00      0.071897570
      6149.00      0.071901485
      6150.00      0.071920972
      6151.00      0.071893750
      6152.00      0.071898396
      6153.00      0.071886751
      6154.00      0.071891416
      6155.00      0.071895381
      6156.00      0.071868866
      6157.00      0.071873547
      6158.00      0.071893852
      6159.00      0.071867340
      6160.00      0.071872054
      6161.00      0.071861152
      6162.00      0.071850964
      6163.00      0.071886970
      6164.00      0.071860455
      6165.00      0.071850280
      6166.00      0.071840112
      6167.00      0.071844882
      6168.00      0.071866027
      6169.00      0.071840221
      6170.00      0.071830068
      6171.00      0.071835582
      6172.00      0.071841113
      6173.00      0.071846660
      6174.00      0.071820840
      6175.00      0.071826399
      6176.00      0.071847659
      6177.00      0.071806865
      6178.00      0.071828147
      6179.00      0.071818740
      6180.00      0.071808634
      6181.00      0.071846391
      6182.00      0.071804860
      6183.00      0.071811200
      6184.00      0.071801815
      6185.00      0.071792446
      6186.00      0.071814543
      6187.00      0.071805182
      6188.00      0.071795827
      6189.00      0.071802216
      6190.00      0.071792872
      6191.00      0.071815049
      6192.00      0.071789946
      6193.00      0.071780613
      6194.00      0.071803539
      6195.00      0.071778437
      6196.00      0.071800680
      6197.00      0.071776288
      6198.00      0.071782765
      6199.00      0.071805063
      6200.00      0.071780667
      6201.00      0.071772081
      6202.00      0.071762782
      6203.00      0.071770019
      6204.00      0.071792379
      6205.00      0.071767990
      6206.00      0.071775262
      6207.00      0.071765988
      6208.00      0.071757439
      6209.00      0.071796428
      6210.00      0.071756186
      6211.00      0.071763503
      6212.00      0.071785980
      6213.00      0.071745729
      6214.00      0.071768935
      6215.00      0.071744542
      6216.00      0.071751911
      6217.00      0.071775164
      6218.00      0.071734891
      6219.00      0.071742273
      6220.00      0.071749673
      6221.00      0.071741187
      6222.00      0.071764509
      6223.00      0.071740119
      6224.00      0.071747568
      6225.00      0.071739092
      6226.00      0.071730626
      6227.00      0.071769960
      6228.00      0.071729636
      6229.00      0.071737126
      6230.00      0.071744617
      6231.00      0.071720235
      6232.00      0.071759661
      6233.00      0.071719311
      6234.00      0.071726843
      6235.00      0.071751078
      6236.00      0.071726687
      6237.00      0.071718277
      6238.00      0.071725847
      6239.00      0.071733436
      6240.00      0.071741035
      6241.00      0.071716648
      6242.00      0.071724262
      6243.00      0.071715875
      6244.00      0.071722791
      6245.00      0.071746463
      6246.00      0.071722286
      6247.00      0.071713850
      6248.00      0.071705416
      6249.00      0.071696929
      6250.00      0.071736555
      6251.00      0.071695973
      6252.00      0.071703537
      6253.00      0.071727107
      6254.00      0.071702572
      6255.00      0.071694033
      6256.00      0.071685416
      6257.00      0.071692886
      6258.00      0.071716517
      6259.00      0.071675688
      6260.00      0.071683182
      6261.00      0.071690537
      6262.00      0.071681894
      6263.00      0.071705381
      6264.00      0.071680556
      6265.00      0.071687894
      6266.00      0.071662999
      6267.00      0.071670344
      6268.00      0.071693759
      6269.00      0.071668792
      6270.00      0.071659892
      6271.00      0.071683198
      6272.00      0.071658167
      6273.00      0.071649134
      6274.00      0.071672477
      6275.00      0.071647230
      6276.00      0.071686635
      6277.00      0.071645210
      6278.00      0.071652231
      6279.00      0.071643076
      6280.00      0.071650036
      6281.00      0.071673135
      6282.00      0.071631407
      6283.00      0.071622134
      6284.00      0.071628905
      6285.00      0.071635701
      6286.00      0.071642434
      6287.00      0.071632888
      6288.00      0.071623352
      6289.00      0.071629967
      6290.00      0.071604138
      6291.00      0.071626849
      6292.00      0.071617111
      6293.00      0.071607311
      6294.00      0.071613751
      6295.00      0.071603810
      6296.00      0.071610198
      6297.00      0.071583931
      6298.00      0.071573864
      6299.00      0.071612511
      6300.00      0.071569837
      6301.00      0.071575900
      6302.00      0.071581898
      6303.00      0.071555278
      6304.00      0.071593735
      6305.00      0.071550747
      6306.00      0.071556490
      6307.00      0.071578552
      6308.00      0.071535335
      6309.00      0.071573580
      6310.00      0.071530133
      6311.00      0.071535637
      6312.00      0.071557400
      6313.00      0.071530119
      6314.00      0.071519099
      6315.00      0.071524339
      6316.00      0.071513262
      6317.00      0.071518374
      6318.00      0.071507076
      6319.00      0.071495725
      6320.00      0.071484358
      6321.00      0.071489214
      6322.00      0.071510451
      6323.00      0.071482443
      6324.00      0.071470819
      6325.00      0.071459041
      6326.00      0.071463643
      6327.00      0.071484577
      6328.00      0.071456275
      6329.00      0.071444307
      6330.00      0.071448654
      6331.00      0.071420142
      6332.00      0.071424359
      6333.00      0.071428503
      6334.00      0.071399779
      6335.00      0.071420210
      6336.00      0.071407823
      6337.00      0.071395304
      6338.00      0.071382770
      6339.00      0.071370106
      6340.00      0.071390299
      6341.00      0.071361138
      6342.00      0.071364699
      6343.00      0.071351824
      6344.00      0.071338889
      6345.00      0.071358776
      6346.00      0.071345695
      6347.00      0.071316098
      6348.00      0.071352337
      6349.00      0.071306123
      6350.00      0.071309233
      6351.00      0.071295879
      6352.00      0.071298854
      6353.00      0.071301845
      6354.00      0.071271736
      6355.00      0.071274593
      6356.00      0.071260887
      6357.00      0.071247122
      6358.00      0.071266269
      6359.00      0.071235866
      6360.00      0.071221891
      6361.00      0.071224339
      6362.00      0.071210301
      6363.00      0.071229132
      6364.00      0.071181924
      6365.00      0.071184109
      6366.00      0.071202836
      6367.00      0.071171909
      6368.00      0.071173977
      6369.00      0.071159445
      6370.00      0.071144844
      6371.00      0.071146706
      6372.00      0.071131964
      6373.00      0.071100614
      6374.00      0.071102342
      6375.00      0.071087390
      6376.00      0.071122100
      6377.00      0.071090515
      6378.00      0.071075359
      6379.00      0.071060193
      6380.00      0.071044966
      6381.00      0.071062791
      6382.00      0.071030857
      6383.00      0.071015483
      6384.00      0.071033120
      6385.00      0.071001031
      6386.00      0.071018544
      6387.00      0.070986312
      6388.00      0.070970518
      6389.00      0.070971314
      6390.00      0.070955449
      6391.00      0.070939524
      6392.00      0.070923589
      6393.00      0.070924116
      6394.00      0.070941184
      6395.00      0.070908434
      6396.00      0.070892147
      6397.00      0.070875859
      6398.00      0.070859509
      6399.00      0.070892940
      6400.00      0.070843199
      6401.00      0.070826638
      6402.00      0.070843318
      6403.00      0.070809982
      6404.00      0.070826467
      6405.00      0.070793056
      6406.00      0.070776211
      6407.00      0.070792568
      6408.00      0.070758862
      6409.00      0.070741805
      6410.00      0.070724742
      6411.00      0.070724187
      6412.00      0.070740221
      6413.00      0.070689636
      6414.00      0.070688946
      6415.00      0.070654807
      6416.00      0.070653969
      6417.00      0.070669736
      6418.00      0.070635518
      6419.00      0.070634487
      6420.00      0.070616707
      6421.00      0.070598943
      6422.00      0.070614377
      6423.00      0.070563119
      6424.00      0.070545135
      6425.00      0.070560430
      6426.00      0.070525628
      6427.00      0.070524179
      6428.00      0.070505906
      6429.00      0.070504252
      6430.00      0.070502605
      6431.00      0.070467502
      6432.00      0.070449021
      6433.00      0.070447148
      6434.00      0.070428530
      6435.00      0.070443235
      6436.00      0.070391134
      6437.00      0.070372291
      6438.00      0.070386854
      6439.00      0.070367936
      6440.00      0.070365667
      6441.00      0.070329899
      6442.00      0.070310772
      6443.00      0.070325077
      6444.00      0.070289150
      6445.00      0.070269819
      6446.00      0.070250465
      6447.00      0.070247766
      6448.00      0.070245004
      6449.00      0.070225444
      6450.00      0.070189163
      6451.00      0.070186179
      6452.00      0.070166477
      6453.00      0.070180167
      6454.00      0.070143579
      6455.00      0.070140399
      6456.00      0.070120398
      6457.00      0.070100413
      6458.00      0.070113760
      6459.00      0.070076874
      6460.00      0.070056667
      6461.00      0.070053134
      6462.00      0.070016035
      6463.00      0.070029098
      6464.00      0.069991922
      6465.00      0.069971422
      6466.00      0.069984284
      6467.00      0.069946881
      6468.00      0.069942927
      6469.00      0.069905451
      6470.00      0.069901345
      6471.00      0.069914013
      6472.00      0.069859473
      6473.00      0.069838473
      6474.00      0.069834216
      6475.00      0.069813066
      6476.00      0.069825371
      6477.00      0.069787380
      6478.00      0.069766005
      6479.00      0.069778183
      6480.00      0.069739961
      6481.00      0.069751993
      6482.00      0.069696920
      6483.00      0.069675264
      6484.00      0.069687141
      6485.00      0.069648628
      6486.00      0.069626829
      6487.00      0.069604935
      6488.00      0.069599755
      6489.00      0.069594576
      6490.00      0.069572543
      6491.00      0.069533669
      6492.00      0.069528263
      6493.00      0.069506017
      6494.00      0.069517267
      6495.00      0.069461370
      6496.00      0.069455755
      6497.00      0.069433282
      6498.00      0.069410745
      6499.00      0.069421698
      6500.00      0.069382291
      6501.00      0.069359529
      6502.00      0.069370343
      6503.00      0.069330712
      6504.00      0.069307798
      6505.00      0.069301601
      6506.00      0.069261825
      6507.00      0.069272351
      6508.00      0.069232422
      6509.00      0.069226011
      6510.00      0.069202716
      6511.00      0.069179369
      6512.00      0.069189613
      6513.00      0.069132586
      6514.00      0.069125873
      6515.00      0.069102285
      6516.00      0.069078640
      6517.00      0.069105400
      6518.00      0.069048057
      6519.00      0.069024259
      6520.00      0.069033985
      6521.00      0.068993230
      6522.00      0.068969283
      6523.00      0.068945256
      6524.00      0.068921160
      6525.00      0.068947406
      6526.00      0.068889530
      6527.00      0.068865288
      6528.00      0.068840962
      6529.00      0.068833369
      6530.00      0.068842517
      6531.00      0.068784425
      6532.00      0.068776604
      6533.00      0.068752053
      6534.00      0.068727362
      6535.00      0.068719396
      6536.00      0.068694626
      6537.00      0.068669782
      6538.00      0.068678478
      6539.00      0.068636744
      6540.00      0.068628554
      6541.00      0.068586675
      6542.00      0.068578338
      6543.00      0.068570002
      6544.00      0.068527885
      6545.00      0.068502674
      6546.00      0.068477301
      6547.00      0.068451924
      6548.00      0.068460090
      6549.00      0.068417762
      6550.00      0.068392236
      6551.00      0.068366643
      6552.00      0.068357774
      6553.00      0.068348833
      6554.00      0.068306275
      6555.00      0.068280452
      6556.00      0.068288242
      6557.00      0.068245445
      6558.00      0.068253168
      6559.00      0.068193494
      6560.00      0.068167379
      6561.00      0.068174930
      6562.00      0.068131921
      6563.00      0.068105720
      6564.00      0.068096233
      6565.00      0.068069882
      6566.00      0.068060334
      6567.00      0.068017094
      6568.00      0.067990673
      6569.00      0.067980878
      6570.00      0.067954369
      6571.00      0.067961322
      6572.00      0.067917852
      6573.00      0.067891119
      6574.00      0.067881177
      6575.00      0.067837567
      6576.00      0.067844355
      6577.00      0.067800578
      6578.00      0.067773691
      6579.00      0.067780253
      6580.00      0.067719610
      6581.00      0.067709363
      6582.00      0.067682163
      6583.00      0.067654970
      6584.00      0.067661358
      6585.00      0.067600495
      6586.00      0.067573153
      6587.00      0.067545804
      6588.00      0.067535237
      6589.00      0.067541320
      6590.00      0.067497018
      6591.00      0.067452735
      6592.00      0.067425149
      6593.00      0.067414276
      6594.00      0.067420189
      6595.00      0.067358890
      6596.00      0.067331158
      6597.00      0.067336900
      6598.00      0.067292307
      6599.00      0.067264417
      6600.00      0.067236525
      6601.00      0.067225335
      6602.00      0.067230853
      6603.00      0.067169247
      6604.00      0.067141203
      6605.00      0.067129765
      6606.00      0.067101643
      6607.00      0.067090215
      6608.00      0.067061934
      6609.00      0.067016893
      6610.00      0.066988535
      6611.00      0.066976940
      6612.00      0.066965266
      6613.00      0.066936828
      6614.00      0.066891639
      6615.00      0.066896565
      6616.00      0.066834535
      6617.00      0.066822698
      6618.00      0.066794026
      6619.00      0.066782109
      6620.00      0.066770195
      6621.00      0.066724610
      6622.00      0.066695866
      6623.00      0.066667033
      6624.00      0.066654880
      6625.00      0.066642792
      6626.00      0.066597055
      6627.00      0.066568084
      6628.00      0.066539087
      6629.00      0.066510106
      6630.00      0.066514442
      6631.00      0.066468631
      6632.00      0.066439491
      6633.00      0.066427001
      6634.00      0.066381115
      6635.00      0.066385282
      6636.00      0.066339316
      6637.00      0.066309941
      6638.00      0.066314095
      6639.00      0.066251256
      6640.00      0.066238594
      6641.00      0.066209122
      6642.00      0.066179659
      6643.00      0.066183562
      6644.00      0.066120572
      6645.00      0.066107745
      6646.00      0.066061414
      6647.00      0.066048499
      6648.00      0.066035499
      6649.00      0.065989162
      6650.00      0.065976084
      6651.00      0.065963088
      6652.00      0.065916591
      6653.00      0.065903429
      6654.00      0.065856861
      6655.00      0.065826995
      6656.00      0.065830520
      6657.00      0.065783869
      6658.00      0.065753926
      6659.00      0.065723888
      6660.00      0.065710558
      6661.00      0.065697214
      6662.00      0.065650486
      6663.00      0.065620375
      6664.00      0.065590254
      6665.00      0.065560069
      6666.00      0.065563233
      6667.00      0.065516356
      6668.00      0.065486158
      6669.00      0.065455871
      6670.00      0.065425602
      6671.00      0.065428586
      6672.00      0.065364958
      6673.00      0.065334603
      6674.00      0.065337491
      6675.00      0.065290460
      6676.00      0.065260012
      6677.00      0.065246223
      6678.00      0.065215696
      6679.00      0.065201902
      6680.00      0.065154645
      6681.00      0.065124114
      6682.00      0.065093579
      6683.00      0.065062965
      6684.00      0.065065640
      6685.00      0.065001670
      6686.00      0.064971053
      6687.00      0.064956990
      6688.00      0.064926286
      6689.00      0.064928777
      6690.00      0.064881433
      6691.00      0.064850655
      6692.00      0.064836497
      6693.00      0.064789002
      6694.00      0.064758220
      6695.00      0.064727345
      6696.00      0.064713089
      6697.00      0.064715458
      6698.00      0.064651261
      6699.00      0.064620388
      6700.00      0.064589427
      6701.00      0.064558478
      6702.00      0.064560646
      6703.00      0.064496475
      6704.00      0.064482031
      6705.00      0.064450986
      6706.00      0.064419933
      6707.00      0.064405474
      6708.00      0.064357759
      6709.00      0.064343292
      6710.00      0.064328743
      6711.00      0.064264447
      6712.00      0.064283041
      6713.00      0.064218655
      6714.00      0.064187518
      6715.00      0.064189435
      6716.00      0.064141632
      6717.00      0.064110410
      6718.00      0.064079176
      6719.00      0.064047942
      6720.00      0.064033190
      6721.00      0.064001947
      6722.00      0.063970625
      6723.00      0.063939305
      6724.00      0.063907979
      6725.00      0.063893202
      6726.00      0.063845322
      6727.00      0.063830459
      6728.00      0.063815671
      6729.00      0.063767711
      6730.00      0.063769452
      6731.00      0.063704954
      6732.00      0.063673529
      6733.00      0.063675163
      6734.00      0.063627127
      6735.00      0.063595700
      6736.00      0.063564263
      6737.00      0.063532752
      6738.00      0.063517746
      6739.00      0.063469791
      6740.00      0.063438281
      6741.00      0.063406755
      6742.00      0.063375238
      6743.00      0.063376706
      6744.00      0.063312099
      6745.00      0.063297060
      6746.00      0.063282011
      6747.00      0.063233907
      6748.00      0.063218773
      6749.00      0.063170747
      6750.00      0.063155602
      6751.00      0.063140448
      6752.00      0.063075871
      6753.00      0.063060711
      6754.00      0.063029070
      6755.00      0.062997433
      6756.00      0.062998725
      6757.00      0.062934071
      6758.00      0.062902429
      6759.00      0.062887149
      6760.00      0.062855497
      6761.00      0.062840217
      6762.00      0.062808471
      6763.00      0.062776816
      6764.00      0.062728631
      6765.00      0.062696890
      6766.00      0.062698006
      6767.00      0.062649821
      6768.00      0.062618063
      6769.00      0.062619169
      6770.00      0.062570977
      6771.00      0.062522795
      6772.00      0.062491028
      6773.00      0.062459182
      6774.00      0.062460236
      6775.00      0.062412048
      6776.00      0.062380188
      6777.00      0.062348409
      6778.00      0.062316551
      6779.00      0.062317558
      6780.00      0.062252899
      6781.00      0.062237500
      6782.00      0.062189235
      6783.00      0.062173823
      6784.00      0.062158325
      6785.00      0.062110061
      6786.00      0.062078256
      6787.00      0.062079110
      6788.00      0.062030839
      6789.00      0.061999019
      6790.00      0.061967116
      6791.00      0.061935222
      6792.00      0.061919757
      6793.00      0.061871486
      6794.00      0.061839580
      6795.00      0.061807665
      6796.00      0.061792092
      6797.00      0.061776586
      6798.00      0.061711987
      6799.00      0.061696394
      6800.00      0.061664466
      6801.00      0.061616288
      6802.00      0.061616998
      6803.00      0.061568732
      6804.00      0.061536876
      6805.00      0.061537560
      6806.00      0.061472981
      6807.00      0.061473730
      6808.00      0.061425458
      6809.00      0.061377204
      6810.00      0.061377916
      6811.00      0.061329650
      6812.00      0.061297762
      6813.00      0.061265792
      6814.00      0.061233900
      6815.00      0.061234495
      6816.00      0.061170018
      6817.00      0.061138044
      6818.00      0.061106132
      6819.00      0.061074223
      6820.00      0.061074839
      6821.00      0.061026574
      6822.00      0.060994654
      6823.00      0.060995246
      6824.00      0.060930801
      6825.00      0.060915113
      6826.00      0.060883176
      6827.00      0.060835002
      6828.00      0.060835537
      6829.00      0.060787352
      6830.00      0.060755478
      6831.00      0.060723522
      6832.00      0.060691565
      6833.00      0.060675911
      6834.00      0.060627728
      6835.00      0.060595844
      6836.00      0.060563950
      6837.00      0.060531983
      6838.00      0.060532500
      6839.00      0.060484387
      6840.00      0.060436291
      6841.00      0.060452978
      6842.00      0.060388663
      6843.00      0.060389132
      6844.00      0.060324908
      6845.00      0.060309172
      6846.00      0.060293508
      6847.00      0.060229221
      6848.00      0.060197368
      6849.00      0.060165509
      6850.00      0.060149737
      6851.00      0.060150206
      6852.00      0.060086005
      6853.00      0.060037990
      6854.00      0.060022341
      6855.00      0.059990466
      6856.00      0.059974802
      6857.00      0.059926777
      6858.00      0.059911106
      6859.00      0.059879286
      6860.00      0.059831265
      6861.00      0.059831700
      6862.00      0.059767707
      6863.00      0.059751996
      6864.00      0.059736283
      6865.00      0.059688409
      6866.00      0.059656571
      6867.00      0.059624804
      6868.00      0.059609142
      6869.00      0.059577372
      6870.00      0.059529504
      6871.00      0.059497731
      6872.00      0.059466030
      6873.00      0.059434250
      6874.00      0.059434700
      6875.00      0.059370837
      6876.00      0.059355190
      6877.00      0.059323468
      6878.00      0.059275687
      6879.00      0.059292232
      6880.00      0.059228370
      6881.00      0.059196716
      6882.00      0.059181112
      6883.00      0.059133399
      6884.00      0.059101737
      6885.00      0.059070069
      6886.00      0.059054511
      6887.00      0.059038942
      6888.00      0.058991227
      6889.00      0.058959625
      6890.00      0.058928095
      6891.00      0.058880470
      6892.00      0.058896908
      6893.00      0.058833325
      6894.00      0.058801786
      6895.00      0.058770231
      6896.00      0.058738689
      6897.00      0.058739209
      6898.00      0.058675657
      6899.00      0.058644174
      6900.00      0.058644662
      6901.00      0.058597178
      6902.00      0.058565682
      6903.00      0.058518295
      6904.00      0.058486877
      6905.00      0.058487306
      6906.00      0.058439983
      6907.00      0.058408552
      6908.00      0.058377110
      6909.00      0.058345754
      6910.00      0.058330337
      6911.00      0.058283018
      6912.00      0.058251730
      6913.00      0.058220354
      6914.00      0.058189054
      6915.00      0.058189615
      6916.00      0.058142370
      6917.00      0.058111061
      6918.00      0.058095744
      6919.00      0.058048576
      6920.00      0.058033244
      6921.00      0.057986084
      6922.00      0.057939014
      6923.00      0.057939637
      6924.00      0.057892559
      6925.00      0.057861379
      6926.00      0.057830186
      6927.00      0.057799080
      6928.00      0.057783848
      6929.00      0.057736843
      6930.00      0.057705729
      6931.00      0.057674677
      6932.00      0.057643637
      6933.00      0.057628440
      6934.00      0.057581526
      6935.00      0.057550546
      6936.00      0.057519559
      6937.00      0.057504421
      6938.00      0.057489273
      6939.00      0.057426672
      6940.00      0.057395753
      6941.00      0.057396494
      6942.00      0.057349725
      6943.00      0.057318883
      6944.00      0.057272205
      6945.00      0.057241351
      6946.00      0.057242111
      6947.00      0.057195506
      6948.00      0.057164642
      6949.00      0.057133838
      6950.00      0.057103122
      6951.00      0.057103916
      6952.00      0.057041595
      6953.00      0.057010866
      6954.00      0.056980208
      6955.00      0.056949472
      6956.00      0.056934587
      6957.00      0.056888149
      6958.00      0.056873248
      6959.00      0.056858419
      6960.00      0.056796294
      6961.00      0.056781453
      6962.00      0.056735092
      6963.00      0.056720236
      6964.00      0.056689696
      6965.00      0.056659159
      6966.00      0.056612886
      6967.00      0.056598149
      6968.00      0.056567685
      6969.00      0.056552936
      6970.00      0.056506733
      6971.00      0.056460619
      6972.00      0.056445845
      6973.00      0.056415445
      6974.00      0.056400820
      6975.00      0.056339001
      6976.00      0.056324359
      6977.00      0.056309712
      6978.00      0.056263671
      6979.00      0.056249086
      6980.00      0.056203128
      6981.00      0.056172854
      6982.00      0.056158247
      6983.00      0.056112369
      6984.00      0.056082160
      6985.00      0.056051944
      6986.00      0.056021730
      6987.00      0.056007250
      6988.00      0.055961368
      6989.00      0.055931223
      6990.00      0.055901150
      6991.00      0.055870997
      6992.00      0.055872200
      6993.00      0.055826472
      6994.00      0.055780833
      6995.00      0.055766368
      6996.00      0.055736351
      6997.00      0.055721953
      6998.00      0.055660775
      6999.00      0.055630752
      7000.00      0.055632020
      7001.00      0.055570857
      7002.00      0.055556577
      7003.00      0.055526691
      7004.00      0.055496729
      7005.00      0.055482511
      7006.00      0.055421445
      7007.00      0.055407210
      7008.00      0.055361816
      7009.00      0.055347562
      7010.00      0.055333306
      7011.00      0.055287980
      7012.00      0.055258230
      7013.00      0.055244027
      7014.00      0.055198782
      7015.00      0.055184645
      7016.00      0.055139404
      7017.00      0.055094174
      7018.00      0.055080098
      7019.00      0.055050393
      7020.00      0.055020768
      7021.00      0.054991216
      7022.00      0.054961583
      7023.00      0.054947549
      7024.00      0.054902469
      7025.00      0.054872988
      7026.00      0.054843414
      7027.00      0.054813929
      7028.00      0.054799932
      7029.00      0.054755011
      7030.00      0.054710027
      7031.00      0.054696086
      7032.00      0.054666737
      7033.00      0.054652781
      7034.00      0.054607945
      7035.00      0.054563120
      7036.00      0.054564691
      7037.00      0.054519932
      7038.00      0.054475109
      7039.00      0.054461262
      7040.00      0.054416601
      7041.00      0.054418193
      7042.00      0.054373514
      7043.00      0.054344289
      7044.00      0.054315128
      7045.00      0.054285895
      7046.00      0.054272161
      7047.00      0.054227567
      7048.00      0.054198478
      7049.00      0.054169307
      7050.00      0.054140209
      7051.00      0.054126600
      7052.00      0.054066692
      7053.00      0.054053062
      7054.00      0.054039432
      7055.00      0.053979607
      7056.00      0.053966039
      7057.00      0.053921698
      7058.00      0.053908109
      7059.00      0.053894520
      7060.00      0.053850247
      7061.00      0.053821356
      7062.00      0.053792447
      7063.00      0.053763549
      7064.00      0.053750081
      7065.00      0.053690539
      7066.00      0.053677054
      7067.00      0.053648293
      7068.00      0.053619451
      7069.00      0.053606029
      7070.00      0.053546666
      7071.00      0.053517901
      7072.00      0.053519857
      7073.00      0.053475825
      7074.00      0.053462524
      7075.00      0.053418491
      7076.00      0.053374560
      7077.00      0.053361308
      7078.00      0.053332671
      7079.00      0.053304108
      7080.00      0.053260247
      7081.00      0.053231683
      7082.00      0.053233765
      7083.00      0.053174617
      7084.00      0.053146206
      7085.00      0.053132970
      7086.00      0.053089278
      7087.00      0.053076110
      7088.00      0.053047679
      7089.00      0.053019242
      7090.00      0.052990878
      7091.00      0.052947263
      7092.00      0.052949391
      7093.00      0.052890604
      7094.00      0.052862311
      7095.00      0.052864486
      7096.00      0.052805711
      7097.00      0.052777492
      7098.00      0.052764482
      7099.00      0.052736246
      7100.00      0.052708088
      7101.00      0.052664633
      7102.00      0.052636471
      7103.00      0.052608382
      7104.00      0.052580215
      7105.00      0.052567316
      7106.00      0.052524023
      7107.00      0.052496006
      7108.00      0.052467894
      7109.00      0.052439869
      7110.00      0.052427016
      7111.00      0.052368717
      7112.00      0.052355927
      7113.00      0.052343128
      7114.00      0.052299992
      7115.00      0.052272105
      7116.00      0.052229065
      7117.00      0.052201174
      7118.00      0.052203641
      7119.00      0.052145457
      7120.00      0.052132764
      7121.00      0.052105008
      7122.00      0.052062053
      7123.00      0.052064545
      7124.00      0.052006538
      7125.00      0.051978861
      7126.00      0.051951091
      7127.00      0.051923406
      7128.00      0.051910890
      7129.00      0.051868094
      7130.00      0.051840471
      7131.00      0.051827942
      7132.00      0.051785306
      7133.00      0.051757672
      7134.00      0.051730116
      7135.00      0.051702558
      7136.00      0.051690149
      7137.00      0.051647592
      7138.00      0.051620104
      7139.00      0.051592610
      7140.00      0.051565197
      7141.00      0.051552835
      7142.00      0.051510350
      7143.00      0.051482927
      7144.00      0.051440542
      7145.00      0.051413195
      7146.00      0.051400947
      7147.00      0.051373583
      7148.00      0.051331284
      7149.00      0.051334042
      7150.00      0.051291806
      7151.00      0.051264506
      7152.00      0.051222281
      7153.00      0.051195145
      7154.00      0.051197929
      7155.00      0.051140775
      7156.00      0.051113628
      7157.00      0.051086556
      7158.00      0.051059402
      7159.00      0.051047300
      7160.00      0.051005235
      7161.00      0.050963267
      7162.00      0.050951220
      7163.00      0.050924207
      7164.00      0.050912154
      7165.00      0.050870248
      7166.00      0.050843305
      7167.00      0.050831311
      7168.00      0.050789405
      7169.00      0.050777473
      7170.00      0.050735650
      7171.00      0.050693841
      7172.00      0.050696899
      7173.00      0.050640232
      7174.00      0.050613425
      7175.00      0.050586607
      7176.00      0.050559876
      7177.00      0.050562961
      7178.00      0.050506391
      7179.00      0.050479641
      7180.00      0.050452970
      7181.00      0.050426300
      7182.00      0.050414514
      7183.00      0.050358142
      7184.00      0.050346416
      7185.00      0.050334690
      7186.00      0.050278328
      7187.00      0.050266662
      7188.00      0.050240122
      7189.00      0.050213585
      7190.00      0.050187037
      7191.00      0.050145718
      7192.00      0.050119250
      7193.00      0.050092776
      7194.00      0.050066380
      7195.00      0.050054823
      7196.00      0.049998755
      7197.00      0.049987177
      7198.00      0.049946025
      7199.00      0.049934508
      7200.00      0.049922995
      7201.00      0.049881830
      7202.00      0.049840768
      7203.00      0.049814498
      7204.00      0.049803034
      7205.00      0.049776756
      7206.00      0.049735768
      7207.00      0.049709574
      7208.00      0.049712948
      7209.00      0.049657244
      7210.00      0.049631121
      7211.00      0.049590219
      7212.00      0.049564087
      7213.00      0.049567564
      7214.00      0.049511973
      7215.00      0.049500666
      7216.00      0.049459847
      7217.00      0.049448601
      7218.00      0.049437359
      7219.00      0.049396609
      7220.00      0.049355868
      7221.00      0.049329943
      7222.00      0.049304020
      7223.00      0.049292814
      7224.00      0.049252236
      7225.00      0.049226383
      7226.00      0.049215238
      7227.00      0.049159950
      7228.00      0.049148788
      7229.00      0.049122995
      7230.00      0.049082513
      7231.00      0.049086186
      7232.00      0.049030998
      7233.00      0.049005277
      7234.00      0.048979550
      7235.00      0.048953906
      7236.00      0.048942847
      7237.00      0.048902519
      7238.00      0.048876861
      7239.00      0.048851281
      7240.00      0.048825615
      7241.00      0.048814682
      7242.00      0.048759782
      7243.00      0.048734275
      7244.00      0.048738043
      7245.00      0.048683241
      7246.00      0.048672349
      7247.00      0.048646818
      7248.00      0.048621366
      7249.00      0.048595911
      7250.00      0.048555833
      7251.00      0.048530455
      7252.00      0.048490384
      7253.00      0.048479603
      7254.00      0.048454295
      7255.00      0.048414304
      7256.00      0.048388992
      7257.00      0.048363673
      7258.00      0.048352938
      7259.00      0.048342281
      7260.00      0.048287867
      7261.00      0.048262617
      7262.00      0.048251930
      7263.00      0.048212180
      7264.00      0.048186915
      7265.00      0.048147179
      7266.00      0.048122080
      7267.00      0.048111434
      7268.00      0.048071775
      7269.00      0.048046665
      7270.00      0.048021624
      7271.00      0.047996502
      7272.00      0.048000525
      7273.00      0.047946407
      7274.00      0.047921356
      7275.00      0.047881867
      7276.00      0.047856897
      7277.00      0.047860933
      7278.00      0.047806926
      7279.00      0.047796528
      7280.00      0.047757113
      7281.00      0.047732206
      7282.00      0.047721776
      7283.00      0.047682446
      7284.00      0.047657523
      7285.00      0.047647155
      7286.00      0.047593439
      7287.00      0.047568587
      7288.00      0.047558279
      7289.00      0.047519037
      7290.00      0.047523262
      7291.00      0.047484006
      7292.00      0.047444851
      7293.00      0.047420134
      7294.00      0.047395426
      7295.00      0.047385229
      7296.00      0.047331718
      7297.00      0.047321504
      7298.00      0.047296853
      7299.00      0.047257783
      7300.00      0.047247631
      7301.00      0.047223048
      7302.00      0.047184144
      7303.00      0.047173968
      7304.00      0.047120662
      7305.00      0.047110552
      7306.00      0.047071648
      7307.00      0.047047131
      7308.00      0.047051473
      7309.00      0.046998264
      7310.00      0.046973823
      7311.00      0.046949454
      7312.00      0.046925090
      7313.00      0.046915004
      7314.00      0.046876341
      7315.00      0.046851963
      7316.00      0.046827657
      7317.00      0.046803356
      7318.00      0.046793396
      7319.00      0.046740391
      7320.00      0.046716161
      7321.00      0.046706258
      7322.00      0.046667687
      7323.00      0.046657769
      7324.00      0.046619275
      7325.00      0.046580711
      7326.00      0.046585170
      7327.00      0.046532451
      7328.00      0.046508277
      7329.00      0.046484175
      7330.00      0.046460070
      7331.00      0.046464562
      7332.00      0.046411937
      7333.00      0.046387904
      7334.00      0.046349591
      7335.00      0.046325552
      7336.00      0.046315781
      7337.00      0.046277548
      7338.00      0.046253581
      7339.00      0.046243873
      7340.00      0.046205634
      7341.00      0.046181739
      7342.00      0.046143592
      7343.00      0.046133939
      7344.00      0.046124275
      7345.00      0.046071963
      7346.00      0.046048052
      7347.00      0.046024213
      7348.00      0.046000459
      7349.00      0.045990841
      7350.00      0.045938639
      7351.00      0.045914877
      7352.00      0.045905309
      7353.00      0.045881536
      7354.00      0.045857842
      7355.00      0.045819944
      7356.00      0.045796241
      7357.00      0.045786726
      7358.00      0.045748908
      7359.00      0.045739461
      7360.00      0.045701641
      7361.00      0.045663832
      7362.00      0.045654360
      7363.00      0.045616628
      7364.00      0.045593064
      7365.00      0.045555341
      7366.00      0.045531775
      7367.00      0.045522428
      7368.00      0.045484787
      7369.00      0.045461289
      7370.00      0.045451918
      7371.00      0.045428409
      7372.00      0.045404977
      7373.00      0.045367417
      7374.00      0.045343975
      7375.00      0.045320534
      7376.00      0.045283067
      7377.00      0.045287839
      7378.00      0.045250353
      7379.00      0.045212880
      7380.00      0.045203685
      7381.00      0.045152120
      7382.00      0.045128824
      7383.00      0.045105521
      7384.00      0.045082216
      7385.00      0.045073064
      7386.00      0.045035677
      7387.00      0.045012440
      7388.00      0.044975142
      7389.00      0.044951990
      7390.00      0.044956854
      7391.00      0.044919628
      7392.00      0.044882415
      7393.00      0.044859231
      7394.00      0.044836059
      7395.00      0.044826914
      7396.00      0.044789770
      7397.00      0.044766667
      7398.00      0.044757585
      7399.00      0.044706428
      7400.00      0.044683393
      7401.00      0.044660272
      7402.00      0.044637232
      7403.00      0.044628194
      7404.00      0.044591221
      7405.00      0.044554177
      7406.00      0.044531202
      7407.00      0.044508229
      7408.00      0.044513223
      7409.00      0.044462263
      7410.00      0.044439283
      7411.00      0.044416364
      7412.00      0.044379494
      7413.00      0.044384506
      7414.00      0.044333658
      7415.00      0.044310740
      7416.00      0.044301849
      7417.00      0.044265049
      7418.00      0.044256144
      7419.00      0.044205405
      7420.00      0.044182550
      7421.00      0.044173703
      7422.00      0.044136989
      7423.00      0.044114206
      7424.00      0.044077504
      7425.00      0.044054712
      7426.00      0.044045822
      7427.00      0.044009201
      7428.00      0.043986481
      7429.00      0.043963752
      7430.00      0.043941024
      7431.00      0.043932187
      7432.00      0.043881761
      7433.00      0.043859105
      7434.00      0.043850322
      7435.00      0.043813780
      7436.00      0.043804984
      7437.00      0.043754583
      7438.00      0.043745850
      7439.00      0.043737114
      7440.00      0.043700650
      7441.00      0.043678046
      7442.00      0.043641590
      7443.00      0.043619068
      7444.00      0.043610289
      7445.00      0.043560085
      7446.00      0.043537555
      7447.00      0.043515007
      7448.00      0.043492548
      7449.00      0.043483813
      7450.00      0.043447531
      7451.00      0.043425057
      7452.00      0.043402573
      7453.00      0.043380090
      7454.00      0.043357601
      7455.00      0.043321408
      7456.00      0.043298913
      7457.00      0.043276496
      7458.00      0.043240309
      7459.00      0.043231658
      7460.00      0.043209317
      7461.00      0.043173119
      7462.00      0.043178302
      7463.00      0.043128335
      7464.00      0.043092230
      7465.00      0.043069954
      7466.00      0.043061334
      7467.00      0.043038963
      7468.00      0.043002935
      7469.00      0.042980646
      7470.00      0.042944539
      7471.00      0.042936046
      7472.00      0.042927470
      7473.00      0.042877716
      7474.00      0.042855493
      7475.00      0.042846881
      7476.00      0.042810939
      7477.00      0.042775008
      7478.00      0.042766455
      7479.00      0.042744293
      7480.00      0.042722037
      7481.00      0.042686184
      7482.00      0.042663922
      7483.00      0.042628070
      7484.00      0.042619559
      7485.00      0.042597370
      7486.00      0.042561599
      7487.00      0.042525759
      7488.00      0.042517290
      7489.00      0.042481446
      7490.00      0.042472963
      7491.00      0.042437197
      7492.00      0.042415156
      7493.00      0.042406653
      7494.00      0.042370883
      7495.00      0.042348820
      7496.00      0.042326762
      7497.00      0.042290997
      7498.00      0.042282538
      7499.00      0.042246942
      7500.00      0.042211266
      7501.00      0.042202774
      7502.00      0.042167182
      7503.00      0.042172368
      7504.00      0.042123085
      7505.00      0.042101074
      7506.00      0.042065480
      7507.00      0.042043551
      7508.00      0.042035089
      7509.00      0.041999583
      7510.00      0.041977547
      7511.00      0.041969158
      7512.00      0.041920092
      7513.00      0.041925229
      7514.00      0.041876165
      7515.00      0.041854203
      7516.00      0.041845847
      7517.00      0.041796812
      7518.00      0.041788438
      7519.00      0.041752926
      7520.00      0.041731027
      7521.00      0.041736155
      7522.00      0.041687292
      7523.00      0.041665374
      7524.00      0.041629955
      7525.00      0.041608115
      7526.00      0.041599677
      7527.00      0.041564339
      7528.00      0.041542488
      7529.00      0.041534112
      7530.00      0.041485292
      7531.00      0.041476896
      7532.00      0.041441558
      7533.00      0.041419773
      7534.00      0.041397893
      7535.00      0.041376096
      7536.00      0.041340854
      7537.00      0.041319043
      7538.00      0.041297236
      7539.00      0.041288861
      7540.00      0.041253604
      7541.00      0.041231866
      7542.00      0.041196614
      7543.00      0.041174874
      7544.00      0.041166454
      7545.00      0.041131282
      7546.00      0.041096126
      7547.00      0.041074360
      7548.00      0.041052594
      7549.00      0.041044220
      7550.00      0.040995754
      7551.00      0.040987357
      7552.00      0.040965661
      7553.00      0.040930494
      7554.00      0.040908795
      7555.00      0.040873718
      7556.00      0.040865368
      7557.00      0.040843643
      7558.00      0.040808568
      7559.00      0.040786844
      7560.00      0.040765109
      7561.00      0.040743456
      7562.00      0.040735059
      7563.00      0.040686727
      7564.00      0.040665065
      7565.00      0.040643393
      7566.00      0.040621640
      7567.00      0.040599959
      7568.00      0.040565055
      7569.00      0.040543370
      7570.00      0.040534987
      7571.00      0.040486701
      7572.00      0.040465089
      7573.00      0.040443385
      7574.00      0.040421770
      7575.00      0.040413419
      7576.00      0.040378425
      7577.00      0.040356795
      7578.00      0.040321891
      7579.00      0.040300247
      7580.00      0.040291861
      7581.00      0.040257035
      7582.00      0.040222137
      7583.00      0.040200477
      7584.00      0.040178902
      7585.00      0.040170460
      7586.00      0.040135640
      7587.00      0.040113964
      7588.00      0.040092367
      7589.00      0.040057547
      7590.00      0.040049153
      7591.00      0.040001131
      7592.00      0.039992719
      7593.00      0.039971099
      7594.00      0.039936282
      7595.00      0.039914651
      7596.00      0.039879839
      7597.00      0.039871470
      7598.00      0.039849827
      7599.00      0.039815095
      7600.00      0.039793445
      7601.00      0.039771877
      7602.00      0.039750303
      7603.00      0.039728636
      7604.00      0.039693908
      7605.00      0.039659186
      7606.00      0.039663868
      7607.00      0.039616000
      7608.00      0.039620664
      7609.00      0.039572794
      7610.00      0.039551190
      7611.00      0.039529572
      7612.00      0.039494935
      7613.00      0.039473317
      7614.00      0.039451686
      7615.00      0.039430140
      7616.00      0.039421600
      7617.00      0.039373865
      7618.00      0.039365299
      7619.00      0.039317583
      7620.00      0.039309085
      7621.00      0.039300498
      7622.00      0.039265845
      7623.00      0.039231206
      7624.00      0.039222673
      7625.00      0.039174982
      7626.00      0.039166428
      7627.00      0.039131785
      7628.00      0.039110182
      7629.00      0.039101606
      7630.00      0.039053936
      7631.00      0.039032319
      7632.00      0.039010692
      7633.00      0.038976062
      7634.00      0.038967516
      7635.00      0.038945875
      7636.00      0.038924231
      7637.00      0.038889675
      7638.00      0.038868021
      7639.00      0.038859347
      7640.00      0.038811814
      7641.00      0.038790235
      7642.00      0.038768559
      7643.00      0.038746977
      7644.00      0.038738255
      7645.00      0.038690737
      7646.00      0.038669051
      7647.00      0.038660388
      7648.00      0.038625826
      7649.00      0.038604123
      7650.00      0.038569569
      7651.00      0.038547944
      7652.00      0.038539229
      7653.00      0.038491761
      7654.00      0.038470032
      7655.00      0.038448380
      7656.00      0.038426734
      7657.00      0.038405074
      7658.00      0.038383414
      7659.00      0.038361744
      7660.00      0.038327191
      7661.00      0.038305516
      7662.00      0.038296709
      7663.00      0.038249191
      7664.00      0.038227502
      7665.00      0.038218663
      7666.00      0.038184104
      7667.00      0.038149556
      7668.00      0.038140685
      7669.00      0.038106128
      7670.00      0.038097333
      7671.00      0.038049949
      7672.00      0.038028220
      7673.00      0.038006488
      7674.00      0.037984746
      7675.00      0.037975808
      7676.00      0.037928449
      7677.00      0.037906692
      7678.00      0.037884934
      7679.00      0.037863169
      7680.00      0.037854184
      7681.00      0.037806843
      7682.00      0.037785067
      7683.00      0.037776051
      7684.00      0.037741490
      7685.00      0.037732454
      7686.00      0.037685135
      7687.00      0.037663334
      7688.00      0.037654268
      7689.00      0.037606970
      7690.00      0.037585150
      7691.00      0.037563327
      7692.00      0.037541495
      7693.00      0.037519661
      7694.00      0.037485107
      7695.00      0.037463262
      7696.00      0.037428712
      7697.00      0.037406858
      7698.00      0.037397687
      7699.00      0.037363132
      7700.00      0.037341264
      7701.00      0.037331978
      7702.00      0.037284745
      7703.00      0.037275524
      7704.00      0.037240966
      7705.00      0.037219071
      7706.00      0.037197079
      7707.00      0.037162524
      7708.00      0.037140610
      7709.00      0.037118602
      7710.00      0.037096680
      7711.00      0.037074747
      7712.00      0.037040104
      7713.00      0.037018167
      7714.00      0.036983527
      7715.00      0.036961578
      7716.00      0.036952131
      7717.00      0.036917576
      7718.00      0.036882941
      7719.00      0.036860879
      7720.00      0.036838903
      7721.00      0.036816833
      7722.00      0.036794759
      7723.00      0.036760121
      7724.00      0.036750679
      7725.00      0.036716029
      7726.00      0.036681394
      7727.00      0.036671827
      7728.00      0.036637190
      7729.00      0.036627605
      7730.00      0.036592957
      7731.00      0.036570832
      7732.00      0.036536188
      7733.00      0.036513971
      7734.00      0.036504333
      7735.00      0.036469682
      7736.00      0.036447533
      7737.00      0.036412795
      7738.00      0.036390634
      7739.00      0.036380856
      7740.00      0.036333737
      7741.00      0.036311469
      7742.00      0.036301746
      7743.00      0.036254562
      7744.00      0.036232278
      7745.00      0.036209990
      7746.00      0.036175357
      7747.00      0.036177918
      7748.00      0.036130756
      7749.00      0.036108443
      7750.00      0.036086128
      7751.00      0.036051313
      7752.00      0.036041384
      7753.00      0.036006655
      7754.00      0.035984315
      7755.00      0.035949498
      7756.00      0.035939530
      7757.00      0.035917082
      7758.00      0.035882344
      7759.00      0.035859887
      7760.00      0.035837426
      7761.00      0.035802693
      7762.00      0.035780220
      7763.00      0.035757739
      7764.00      0.035722921
      7765.00      0.035712766
      7766.00      0.035677937
      7767.00      0.035655350
      7768.00      0.035620527
      7769.00      0.035598019
      7770.00      0.035587714
      7771.00      0.035540591
      7772.00      0.035517978
      7773.00      0.035495348
      7774.00      0.035460448
      7775.00      0.035450174
      7776.00      0.035415171
      7777.00      0.035392529
      7778.00      0.035382132
      7779.00      0.035334966
      7780.00      0.035324544
      7781.00      0.035289541
      7782.00      0.035266775
      7783.00      0.035256325
      7784.00      0.035209094
      7785.00      0.035186313
      7786.00      0.035163518
      7787.00      0.035128523
      7788.00      0.035117920
      7789.00      0.035082828
      7790.00      0.035047835
      7791.00      0.035024926
      7792.00      0.035002105
      7793.00      0.034979182
      7794.00      0.034944099
      7795.00      0.034921171
      7796.00      0.034910381
      7797.00      0.034875198
      7798.00      0.034852246
      7799.00      0.034817068
      7800.00      0.034781990
      7801.00      0.034771052
      7802.00      0.034735876
      7803.00      0.034712809
      7804.00      0.034677637
      7805.00      0.034666562
      7806.00      0.034643471
      7807.00      0.034608199
      7808.00      0.034572942
      7809.00      0.034549747
      7810.00      0.034526547
      7811.00      0.034503341
      7812.00      0.034468080
      7813.00      0.034444772
      7814.00      0.034421547
      7815.00      0.034398226
      7816.00      0.034374895
      7817.00      0.034351562
      7818.00      0.034316205
      7819.00      0.034304776
      7820.00      0.034269412
      7821.00      0.034233968
      7822.00      0.034210513
      7823.00      0.034187051
      7824.00      0.034175560
      7825.00      0.034128042
      7826.00      0.034092606
      7827.00      0.034080987
      7828.00      0.034057402
      7829.00      0.034033810
      7830.00      0.033998266
      7831.00      0.033962648
      7832.00      0.033939036
      7833.00      0.033915337
      7834.00      0.033903538
      7835.00      0.033856001
      7836.00      0.033832187
      7837.00      0.033820351
      7838.00      0.033772746
      7839.00      0.033748916
      7840.00      0.033725072
      7841.00      0.033701230
      7842.00      0.033689150
      7843.00      0.033641568
      7844.00      0.033617613
      7845.00      0.033593648
      7846.00      0.033557846
      7847.00      0.033545608
      7848.00      0.033509707
      7849.00      0.033485719
      7850.00      0.033461538
      7851.00      0.033425642
      7852.00      0.033413339
      7853.00      0.033365560
      7854.00      0.033341358
      7855.00      0.033328924
      7856.00      0.033292932
      7857.00      0.033268615
      7858.00      0.033232538
      7859.00      0.033208210
      7860.00      0.033195622
      7861.00      0.033159533
      7862.00      0.033123363
      7863.00      0.033098917
      7864.00      0.033074463
      7865.00      0.033050003
      7866.00      0.033013741
      7867.00      0.032989179
      7868.00      0.032952920
      7869.00      0.032928345
      7870.00      0.032903763
      7871.00      0.032867418
      7872.00      0.032842734
      7873.00      0.032829690
      7874.00      0.032793246
      7875.00      0.032768443
      7876.00      0.032732093
      7877.00      0.032695576
      7878.00      0.032682369
      7879.00      0.032645842
      7880.00      0.032620919
      7881.00      0.032595982
      7882.00      0.032559457
      7883.00      0.032545999
      7884.00      0.032509377
      7885.00      0.032472762
      7886.00      0.032447613
      7887.00      0.032422549
      7888.00      0.032408934
      7889.00      0.032360589
      7890.00      0.032335410
      7891.00      0.032298617
      7892.00      0.032273338
      7893.00      0.032259467
      7894.00      0.032222660
      7895.00      0.032185777
      7896.00      0.032171862
      7897.00      0.032134877
      7898.00      0.032097994
      7899.00      0.032072480
      7900.00      0.032046868
      7901.00      0.032032790
      7902.00      0.031995710
      7903.00      0.031958640
      7904.00      0.031932903
      7905.00      0.031895838
      7906.00      0.031892918
      7907.00      0.031844244
      7908.00      0.031818482
      7909.00      0.031781230
      7910.00      0.031755364
      7911.00      0.031729396
      7912.00      0.031703420
      7913.00      0.031677434
      7914.00      0.031651437
      7915.00      0.031602658
      7916.00      0.031576566
      7917.00      0.031550458
      7918.00      0.031524257
      7919.00      0.031509359
      7920.00      0.031460517
      7921.00      0.031434291
      7922.00      0.031407962
      7923.00      0.031370349
      7924.00      0.031355189
      7925.00      0.031306216
      7926.00      0.031291027
      7927.00      0.031253313
      7928.00      0.031226762
      7929.00      0.031200197
      7930.00      0.031162305
      7931.00      0.031124518
      7932.00      0.031120262
      7933.00      0.031071070
      7934.00      0.031055481
      7935.00      0.031017492
      7936.00      0.030979516
      7937.00      0.030963784
      7938.00      0.030925707
      7939.00      0.030887549
      7940.00      0.030860629
      7941.00      0.030822475
      7942.00      0.030817612
      7943.00      0.030768226
      7944.00      0.030741087
      7945.00      0.030702749
      7946.00      0.030675598
      7947.00      0.030659338
      7948.00      0.030620984
      7949.00      0.030593622
      7950.00      0.030566246
      7951.00      0.030527711
      7952.00      0.030511278
      7953.00      0.030461612
      7954.00      0.030423094
      7955.00      0.030406519
      7956.00      0.030367810
      7957.00      0.030340107
      7958.00      0.030312391
      7959.00      0.030273596
      7960.00      0.030256750
      7961.00      0.030206981
      7962.00      0.030190011
      7963.00      0.030151116
      7964.00      0.030123170
      7965.00      0.030095119
      7966.00      0.030056135
      7967.00      0.030027981
      7968.00      0.029999814
      7969.00      0.029960741
      7970.00      0.029943358
      7971.00      0.029904184
      7972.00      0.029864927
      7973.00      0.029847495
      7974.00      0.029808227
      7975.00      0.029768882
      7976.00      0.029740372
      7977.00      0.029711854
      7978.00      0.029694148
      7979.00      0.029643883
      7980.00      0.029604449
      7981.00      0.029575716
      7982.00      0.029557752
      7983.00      0.029528991
      7984.00      0.029478690
      7985.00      0.029460583
      7986.00      0.029420951
      7987.00      0.029381334
      7988.00      0.029373816
      7989.00      0.029323362
      7990.00      0.029283651
      7991.00      0.029265344
      7992.00      0.029225535
      7993.00      0.029196411
      7994.00      0.029156606
      7995.00      0.029127378
      7996.00      0.029098225
      7997.00      0.029068972
      7998.00      0.029028983
      7999.00      0.028999709
      8000.00      0.028959724
      8001.00      0.028940954
      8002.00      0.028900958
      8003.00      0.028860880
      8004.00      0.028831474
      8005.00      0.028801969
      8006.00      0.028772356
      8007.00      0.028732271
      8008.00      0.028702646
      8009.00      0.028673097
      8010.00      0.028632923
      8011.00      0.028603269
      8012.00      0.028563004
      8013.00      0.028543825
      8014.00      0.028514041
      8015.00      0.028473767
      8016.00      0.028443966
      8017.00      0.028403603
      8018.00      0.028373785
      8019.00      0.028343863
      8020.00      0.028303505
      8021.00      0.028273660
      8022.00      0.028243615
      8023.00      0.028203255
      8024.00      0.028183679
      8025.00      0.028132840
      8026.00      0.028102858
      8027.00      0.028083133
      8028.00      0.028032324
      8029.00      0.028012558
      8030.00      0.027972008
      8031.00      0.027931563
      8032.00      0.027922056
      8033.00      0.027871190
      8034.00      0.027840939
      8035.00      0.027810766
      8036.00      0.027770219
      8037.00      0.027750204
      8038.00      0.027709645
      8039.00      0.027669099
      8040.00      0.027628466
      8041.00      0.027598154
      8042.00      0.027578038
      8043.00      0.027527194
      8044.00      0.027496849
      8045.00      0.027476583
      8046.00      0.027436033
      8047.00      0.027405556
      8048.00      0.027364917
      8049.00      0.027334426
      8050.00      0.027314151
      8051.00      0.027263373
      8052.00      0.027222747
      8053.00      0.027192218
      8054.00      0.027161677
      8055.00      0.027141209
      8056.00      0.027100561
      8057.00      0.027059924
      8058.00      0.027019292
      8059.00      0.026988706
      8060.00      0.026968137
      8061.00      0.026927490
      8062.00      0.026886859
      8063.00      0.026856227
      8064.00      0.026825584
      8065.00      0.026804914
      8066.00      0.026754290
      8067.00      0.026723616
      8068.00      0.026702883
      8069.00      0.026652382
      8070.00      0.026611753
      8071.00      0.026581041
      8072.00      0.026550321
      8073.00      0.026519676
      8074.00      0.026479044
      8075.00      0.026438419
      8076.00      0.026407751
      8077.00      0.026376981
      8078.00      0.026356137
      8079.00      0.026315584
      8080.00      0.026275044
      8081.00      0.026244224
      8082.00      0.026213493
      8083.00      0.026182744
      8084.00      0.026142289
      8085.00      0.026101752
      8086.00      0.026080746
      8087.00      0.026030541
      8088.00      0.025999753
      8089.00      0.025969040
      8090.00      0.025938319
      8091.00      0.025907581
      8092.00      0.025867132
      8093.00      0.025836379
      8094.00      0.025795931
      8095.00      0.025765251
      8096.00      0.025744129
      8097.00      0.025694111
      8098.00      0.025663403
      8099.00      0.025632677
      8100.00      0.025601942
      8101.00      0.025571286
      8102.00      0.025530918
      8103.00      0.025500245
      8104.00      0.025469555
      8105.00      0.025429282
      8106.00      0.025398577
      8107.00      0.025358401
      8108.00      0.025318148
      8109.00      0.025297034
      8110.00      0.025256858
      8111.00      0.025226196
      8112.00      0.025186119
      8113.00      0.025155435
      8114.00      0.025134310
      8115.00      0.025094219
      8116.00      0.025054232
      8117.00      0.025023592
      8118.00      0.024993039
      8119.00      0.024962473
      8120.00      0.024913071
      8121.00      0.024882586
      8122.00      0.024861480
      8123.00      0.024812202
      8124.00      0.024791054
      8125.00      0.024751154
      8126.00      0.024720707
      8127.00      0.024690242
      8128.00      0.024641116
      8129.00      0.024620052
      8130.00      0.024580343
      8131.00      0.024540644
      8132.00      0.024528899
      8133.00      0.024479903
      8134.00      0.024449559
      8135.00      0.024410040
      8136.00      0.024379678
      8137.00      0.024358631
      8138.00      0.024309876
      8139.00      0.024279668
      8140.00      0.024258652
      8141.00      0.024210020
      8142.00      0.024189057
      8143.00      0.024149715
      8144.00      0.024110382
      8145.00      0.024089356
      8146.00      0.024050105
      8147.00      0.024010961
      8148.00      0.023980842
      8149.00      0.023950807
      8150.00      0.023920850
      8151.00      0.023881699
      8152.00      0.023842650
      8153.00      0.023812760
      8154.00      0.023782864
      8155.00      0.023752951
      8156.00      0.023713989
      8157.00      0.023684151
      8158.00      0.023654392
      8159.00      0.023615525
      8160.00      0.023585750
      8161.00      0.023547071
      8162.00      0.023517372
      8163.00      0.023487657
      8164.00      0.023449073
      8165.00      0.023410497
      8166.00      0.023380946
      8167.00      0.023351383
      8168.00      0.023321903
      8169.00      0.023292406
      8170.00      0.023254007
      8171.00      0.023224585
      8172.00      0.023186283
      8173.00      0.023165801
      8174.00      0.023118735
      8175.00      0.023089467
      8176.00      0.023060184
      8177.00      0.023022073
      8178.00      0.023001675
      8179.00      0.022954947
      8180.00      0.022925816
      8181.00      0.022905449
      8182.00      0.022867609
      8183.00      0.022838533
      8184.00      0.022800788
      8185.00      0.022771788
      8186.00      0.022742869
      8187.00      0.022696506
      8188.00      0.022667671
      8189.00      0.022638820
      8190.00      0.022609960
      8191.00      0.022581272
      8192.00      0.022543811
      8193.00      0.022515106
      8194.00      0.022477744
      8195.00      0.022440484
      8196.00      0.022429195
      8197.00      0.022383296
      8198.00      0.022346223
      8199.00      0.022334940
      8200.00      0.022289255
      8201.00      0.022260845
      8202.00      0.022223862
      8203.00      0.022195434
      8204.00      0.022175731
      8205.00      0.022130291
      8206.00      0.022102023
      8207.00      0.022073833
      8208.00      0.022037129
      8209.00      0.022009015
      8210.00      0.021972408
      8211.00      0.021944277
      8212.00      0.021916231
      8213.00      0.021879811
      8214.00      0.021860285
      8215.00      0.021815421
      8216.00      0.021787527
      8217.00      0.021768125
      8218.00      0.021731789
      8219.00      0.021704043
      8220.00      0.021659516
      8221.00      0.021631763
      8222.00      0.021604087
      8223.00      0.021576402
      8224.00      0.021540452
      8225.00      0.021512935
      8226.00      0.021485409
      8227.00      0.021457867
      8228.00      0.021413796
      8229.00      0.021386341
      8230.00      0.021358966
      8231.00      0.021323304
      8232.00      0.021304274
      8233.00      0.021260537
      8234.00      0.021233318
      8235.00      0.021214321
      8236.00      0.021178933
      8237.00      0.021151766
      8238.00      0.021116476
      8239.00      0.021081194
      8240.00      0.021062384
      8241.00      0.021027280
      8242.00      0.021000352
      8243.00      0.020965250
      8244.00      0.020938402
      8245.00      0.020911537
      8246.00      0.020876622
      8247.00      0.020849932
      8248.00      0.020815116
      8249.00      0.020788409
      8250.00      0.020761782
      8251.00      0.020727154
      8252.00      0.020700605
      8253.00      0.020674137
      8254.00      0.020639605
      8255.00      0.020621167
      8256.00      0.020578683
      8257.00      0.020552370
      8258.00      0.020526046
      8259.00      0.020491796
      8260.00      0.020465550
      8261.00      0.020431399
      8262.00      0.020405230
      8263.00      0.020387116
      8264.00      0.020345085
      8265.00      0.020311132
      8266.00      0.020285118
      8267.00      0.020259185
      8268.00      0.020233338
      8269.00      0.020199567
      8270.00      0.020173701
      8271.00      0.020140027
      8272.00      0.020114334
      8273.00      0.020096507
      8274.00      0.020055048
      8275.00      0.020021667
      8276.00      0.020003877
      8277.00      0.019970485
      8278.00      0.019945020
      8279.00      0.019919635
      8280.00      0.019886338
      8281.00      0.019861032
      8282.00      0.019827925
      8283.00      0.019802603
      8284.00      0.019769595
      8285.00      0.019744447
      8286.00      0.019727043
      8287.00      0.019686467
      8288.00      0.019661386
      8289.00      0.019636291
      8290.00      0.019603659
      8291.00      0.019578739
      8292.00      0.019546109
      8293.00      0.019513585
      8294.00      0.019504100
      8295.00      0.019463976
      8296.00      0.019446960
      8297.00      0.019406953
      8298.00      0.019382353
      8299.00      0.019365378
      8300.00      0.019325585
      8301.00      0.019301053
      8302.00      0.019268996
      8303.00      0.019244637
      8304.00      0.019227859
      8305.00      0.019188304
      8306.00      0.019164105
      8307.00      0.019139803
      8308.00      0.019108122
      8309.00      0.019083898
      8310.00      0.019052318
      8311.00      0.019028269
      8312.00      0.019011728
      8313.00      0.018972813
      8314.00      0.018956335
      8315.00      0.018917441
      8316.00      0.018893635
      8317.00      0.018877389
      8318.00      0.018838709
      8319.00      0.018814970
      8320.00      0.018791312
      8321.00      0.018752867
      8322.00      0.018744161
      8323.00      0.018705811
      8324.00      0.018682316
      8325.00      0.018651499
      8326.00      0.018628176
      8327.00      0.018604845
      8328.00      0.018574217
      8329.00      0.018543600
      8330.00      0.018520436
      8331.00      0.018497263
      8332.00      0.018474270
      8333.00      0.018443836
      8334.00      0.018420826
      8335.00      0.018397903
      8336.00      0.018367750
      8337.00      0.018337514
      8338.00      0.018314758
      8339.00      0.018291995
      8340.00      0.018269314
      8341.00      0.018239358
      8342.00      0.018216758
      8343.00      0.018194243
      8344.00      0.018157236
      8345.00      0.018149182
      8346.00      0.018112367
      8347.00      0.018090013
      8348.00      0.018060440
      8349.00      0.018038169
      8350.00      0.018023176
      8351.00      0.017986596
      8352.00      0.017964487
      8353.00      0.017942371
      8354.00      0.017913176
      8355.00      0.017884084
      8356.00      0.017862137
      8357.00      0.017840277
      8358.00      0.017818500
      8359.00      0.017782478
      8360.00      0.017760694
      8361.00      0.017739088
      8362.00      0.017717476
      8363.00      0.017702944
      8364.00      0.017667234
      8365.00      0.017638717
      8366.00      0.017617265
      8367.00      0.017595900
      8368.00      0.017574619
      8369.00      0.017539252
      8370.00      0.017518059
      8371.00      0.017496855
      8372.00      0.017475738
      8373.00      0.017454705
      8374.00      0.017426662
      8375.00      0.017398722
      8376.00      0.017384751
      8377.00      0.017356898
      8378.00      0.017329149
      8379.00      0.017308359
      8380.00      0.017280709
      8381.00      0.017267043
      8382.00      0.017239479
      8383.00      0.017212018
      8384.00      0.017191479
      8385.00      0.017164117
      8386.00      0.017150661
      8387.00      0.017123384
      8388.00      0.017096212
      8389.00      0.017082809
      8390.00      0.017055819
      8391.00      0.017035607
      8392.00      0.017001858
      8393.00      0.016981735
      8394.00      0.016961794
      8395.00      0.016935008
      8396.00      0.016915150
      8397.00      0.016895280
      8398.00      0.016868685
      8399.00      0.016855709
      8400.00      0.016829296
      8401.00      0.016802794
      8402.00      0.016776489
      8403.00      0.016756869
      8404.00      0.016737431
      8405.00      0.016711222
      8406.00      0.016691868
      8407.00      0.016679255
      8408.00      0.016646485
      8409.00      0.016633939
      8410.00      0.016601283
      8411.00      0.016582179
      8412.00      0.016563067
      8413.00      0.016537241
      8414.00      0.016511616
      8415.00      0.016492679
      8416.00      0.016467054
      8417.00      0.016454875
      8418.00      0.016429434
      8419.00      0.016404000
      8420.00      0.016378667
      8421.00      0.016366626
      8422.00      0.016348022
      8423.00      0.016322773
      8424.00      0.016297628
      8425.00      0.016279199
      8426.00      0.016254152
      8427.00      0.016242412
      8428.00      0.016217454
      8429.00      0.016192598
      8430.00      0.016174425
      8431.00      0.016149570
      8432.00      0.016131481
      8433.00      0.016113381
      8434.00      0.016088815
      8435.00      0.016070801
      8436.00      0.016046332
      8437.00      0.016028402
      8438.00      0.016004031
      8439.00      0.015986185
      8440.00      0.015974943
      8441.00      0.015944150
      8442.00      0.015920076
      8443.00      0.015902395
      8444.00      0.015884803
      8445.00      0.015867301
      8446.00      0.015843316
      8447.00      0.015819434
      8448.00      0.015808471
      8449.00      0.015784677
      8450.00      0.015767334
      8451.00      0.015743639
      8452.00      0.015719950
      8453.00      0.015709212
      8454.00      0.015685707
      8455.00      0.015662209
      8456.00      0.015645119
      8457.00      0.015621721
      8458.00      0.015611208
      8459.00      0.015587897
      8460.00      0.015564689
      8461.00      0.015547859
      8462.00      0.015524653
      8463.00      0.015507905
      8464.00      0.015491249
      8465.00      0.015468234
      8466.00      0.015451662
      8467.00      0.015428744
      8468.00      0.015412258
      8469.00      0.015395762
      8470.00      0.015366725
      8471.00      0.015356627
      8472.00      0.015334003
      8473.00      0.015311381
      8474.00      0.015295150
      8475.00      0.015272725
      8476.00      0.015262759
      8477.00      0.015240424
      8478.00      0.015224262
      8479.00      0.015202025
      8480.00      0.015186045
      8481.00      0.015170059
      8482.00      0.015147916
      8483.00      0.015125780
      8484.00      0.015116202
      8485.00      0.015087934
      8486.00      0.015078429
      8487.00      0.015056482
      8488.00      0.015034636
      8489.00      0.015025193
      8490.00      0.014997245
      8491.00      0.014981686
      8492.00      0.014959940
      8493.00      0.014944566
      8494.00      0.014929083
      8495.00      0.014913694
      8496.00      0.014892235
      8497.00      0.014870780
      8498.00      0.014855569
      8499.00      0.014840350
      8500.00      0.014818992
      8501.00      0.014803860
      8502.00      0.014782696
      8503.00      0.014767650
      8504.00      0.014758710
      8505.00      0.014731530
      8506.00      0.014716562
      8507.00      0.014701685
      8508.00      0.014674630
      8509.00      0.014659844
      8510.00      0.014645049
      8511.00      0.014624278
      8512.00      0.014615634
      8513.00      0.014588799
      8514.00      0.014574180
      8515.00      0.014559649
      8516.00      0.014539073
      8517.00      0.014524532
      8518.00      0.014504053
      8519.00      0.014489599
      8520.00      0.014469219
      8521.00      0.014454852
      8522.00      0.014440476
      8523.00      0.014420291
      8524.00      0.014406004
      8525.00      0.014391808
      8526.00      0.014371619
      8527.00      0.014351532
      8528.00      0.014337419
      8529.00      0.014317432
      8530.00      0.014303406
      8531.00      0.014289471
      8532.00      0.014275530
      8533.00      0.014255633
      8534.00      0.014235841
      8535.00      0.014221982
      8536.00      0.014202288
      8537.00      0.014188518
      8538.00      0.014174838
      8539.00      0.014161151
      8540.00      0.014141549
      8541.00      0.014122050
      8542.00      0.014102555
      8543.00      0.014094937
      8544.00      0.014075532
      8545.00      0.014067992
      8546.00      0.014042804
      8547.00      0.014023503
      8548.00      0.014016029
      8549.00      0.013990963
      8550.00      0.013977713
      8551.00      0.013958610
      8552.00      0.013951191
      8553.00      0.013932180
      8554.00      0.013913173
      8555.00      0.013900092
      8556.00      0.013881183
      8557.00      0.013868093
      8558.00      0.013855092
      8559.00      0.013842184
      8560.00      0.013823369
      8561.00      0.013810451
      8562.00      0.013791834
      8563.00      0.013779004
      8564.00      0.013760386
      8565.00      0.013747645
      8566.00      0.013734897
      8567.00      0.013716376
      8568.00      0.013697958
      8569.00      0.013679543
      8570.00      0.013672724
      8571.00      0.013660149
      8572.00      0.013641821
      8573.00      0.013623598
      8574.00      0.013611105
      8575.00      0.013592884
      8576.00      0.013586203
      8577.00      0.013562455
      8578.00      0.013550044
      8579.00      0.013537723
      8580.00      0.013519794
      8581.00      0.013507465
      8582.00      0.013489635
      8583.00      0.013471710
      8584.00      0.013465247
      8585.00      0.013447413
      8586.00      0.013435354
      8587.00      0.013417621
      8588.00      0.013405553
      8589.00      0.013387920
      8590.00      0.013375940
      8591.00      0.013358406
      8592.00      0.013346418
      8593.00      0.013328884
      8594.00      0.013317084
      8595.00      0.013299649
      8596.00      0.013282219
      8597.00      0.013276024
      8598.00      0.013258685
      8599.00      0.013252572
      8600.00      0.013229721
      8601.00      0.013217986
      8602.00      0.013200846
      8603.00      0.013183613
      8604.00      0.013172062
      8605.00      0.013160507
      8606.00      0.013143368
      8607.00      0.013131902
      8608.00      0.013120330
      8609.00      0.013103389
      8610.00      0.013091908
      8611.00      0.013074965
      8612.00      0.013063574
      8613.00      0.013046633
      8614.00      0.013035332
      8615.00      0.013018489
      8616.00      0.013001652
      8617.00      0.012995863
      8618.00      0.012979117
      8619.00      0.012962376
      8620.00      0.012956660
      8621.00      0.012939912
      8622.00      0.012923268
      8623.00      0.012906625
      8624.00      0.012895479
      8625.00      0.012889915
      8626.00      0.012867779
      8627.00      0.012851239
      8628.00      0.012840170
      8629.00      0.012823730
      8630.00      0.012823590
      8631.00      0.012801672
      8632.00      0.012785229
      8633.00      0.012774237
      8634.00      0.012763241
      8635.00      0.012746893
      8636.00      0.012730549
      8637.00      0.012719641
      8638.00      0.012708726
      8639.00      0.012692380
      8640.00      0.012681556
      8641.00      0.012670726
      8642.00      0.012654477
      8643.00      0.012643638
      8644.00      0.012627388
      8645.00      0.012616542
      8646.00      0.012600392
      8647.00      0.012589636
      8648.00      0.012578873
      8649.00      0.012557341
      8650.00      0.012546573
      8651.00      0.012530528
      8652.00      0.012519752
      8653.00      0.012509069
      8654.00      0.012498378
      8655.00      0.012482328
      8656.00      0.012471631
      8657.00      0.012455581
      8658.00      0.012444875
      8659.00      0.012428924
      8660.00      0.012418309
      8661.00      0.012407590
      8662.00      0.012391634
      8663.00      0.012375686
      8664.00      0.012359740
      8665.00      0.012349104
      8666.00      0.012338563
      8667.00      0.012322615
      8668.00      0.012311965
      8669.00      0.012301409
      8670.00      0.012285558
      8671.00      0.012280182
      8672.00      0.012259043
      8673.00      0.012248471
      8674.00      0.012232619
      8675.00      0.012222038
      8676.00      0.012211451
      8677.00      0.012195597
      8678.00      0.012185101
      8679.00      0.012169249
      8680.00      0.012153399
      8681.00      0.012142892
      8682.00      0.012127043
      8683.00      0.012116426
      8684.00      0.012105904
      8685.00      0.012090152
      8686.00      0.012079523
      8687.00      0.012063770
      8688.00      0.012053132
      8689.00      0.012042587
      8690.00      0.012021634
      8691.00      0.012010984
      8692.00      0.012000426
      8693.00      0.011984677
      8694.00      0.011979296
      8695.00      0.011958261
      8696.00      0.011942515
      8697.00      0.011937108
      8698.00      0.011921255
      8699.00      0.011905507
      8700.00      0.011894914
      8701.00      0.011884318
      8702.00      0.011873614
      8703.00      0.011852719
      8704.00      0.011842010
      8705.00      0.011826261
      8706.00      0.011820773
      8707.00      0.011810047
      8708.00      0.011794290
      8709.00      0.011773323
      8710.00      0.011762587
      8711.00      0.011751944
      8712.00      0.011741199
      8713.00      0.011725345
      8714.00      0.011709497
      8715.00      0.011703927
      8716.00      0.011688072
      8717.00      0.011677302
      8718.00      0.011656271
      8719.00      0.011645495
      8720.00      0.011634710
      8721.00      0.011618860
      8722.00      0.011602912
      8723.00      0.011592116
      8724.00      0.011581215
      8725.00      0.011570308
      8726.00      0.011549317
      8727.00      0.011538504
      8728.00      0.011522458
      8729.00      0.011516559
      8730.00      0.011500605
      8731.00      0.011484656
      8732.00      0.011473617
      8733.00      0.011462672
      8734.00      0.011446620
      8735.00      0.011435566
      8736.00      0.011419514
      8737.00      0.011408452
      8738.00      0.011397381
      8739.00      0.011376250
      8740.00      0.011360105
      8741.00      0.011349026
      8742.00      0.011337841
      8743.00      0.011331610
      8744.00      0.011310497
      8745.00      0.011299197
      8746.00      0.011283045
      8747.00      0.011271735
      8748.00      0.011260417
      8749.00      0.011244163
      8750.00      0.011232835
      8751.00      0.011221402
      8752.00      0.011200230
      8753.00      0.011193701
      8754.00      0.011172438
      8755.00      0.011160988
      8756.00      0.011154329
      8757.00      0.011128190
      8758.00      0.011116627
      8759.00      0.011105056
      8760.00      0.011088606
      8761.00      0.011081795
      8762.00      0.011060474
      8763.00      0.011043928
      8764.00      0.011032233
      8765.00      0.011020432
      8766.00      0.011008725
      8767.00      0.010992070
      8768.00      0.010975420
      8769.00      0.010963497
      8770.00      0.010946847
      8771.00      0.010939733
      8772.00      0.010922975
      8773.00      0.010911030
      8774.00      0.010898975
      8775.00      0.010877316
      8776.00      0.010865256
      8777.00      0.010848400
      8778.00      0.010836230
      8779.00      0.010824051
      8780.00      0.010807092
      8781.00      0.010790036
      8782.00      0.010777844
      8783.00      0.010760688
      8784.00      0.010753134
      8785.00      0.010731226
      8786.00      0.010718812
      8787.00      0.010701655
      8788.00      0.010689128
      8789.00      0.010676694
      8790.00      0.010659333
      8791.00      0.010646788
      8792.00      0.010629427
      8793.00      0.010616770
      8794.00      0.010599308
      8795.00      0.010581851
      8796.00      0.010569077
      8797.00      0.010556297
      8798.00      0.010538736
      8799.00      0.010525741
      8800.00      0.010508178
